Timestamp,collidingObject,HeartRate,CognitiveLoad,Attention,Relaxation,leftPupilDialation,rightPupilDialation,Condition,AF3,AF4,FP1,FP2,AF7,AF8,
19/07/2022 6:47:02 p.m.:156,,77,0,0.7228315,0.2871624,0,0,0.481280535459518,-0.5,0.404173046350479,0.325859755277634,0.49961718916893,0.423469752073288,,
19/07/2022 6:47:02 p.m.:204,,77,0,0.7228315,0.2871624,0,0,0.481280535459518,-0.5,0.404173046350479,0.325859755277634,0.49961718916893,0.423469752073288,,
19/07/2022 6:47:02 p.m.:241,,77,0,0.7228315,0.2871624,0,0,0.481280535459518,-0.5,0.404173046350479,0.325859755277634,0.49961718916893,0.423469752073288,,
19/07/2022 6:47:02 p.m.:263,,77,0,0.7228315,0.2871624,0,0,0.481280535459518,-0.5,0.404173046350479,0.325859755277634,0.49961718916893,0.423469752073288,,
19/07/2022 6:47:02 p.m.:293,,77,0,0.7228315,0.2871624,0,0,0.481280535459518,-0.5,0.404173046350479,0.325859755277634,0.49961718916893,0.423469752073288,,
19/07/2022 6:47:02 p.m.:328,,77,0,0.7228315,0.2871624,0,0,0.481280535459518,-0.5,0.404173046350479,0.325859755277634,0.49961718916893,0.423469752073288,,
19/07/2022 6:47:02 p.m.:350,,77,0,0.7228315,0.2871624,0,0,0.481280535459518,-0.5,0.404173046350479,0.325859755277634,0.49961718916893,0.423469752073288,,
19/07/2022 6:47:02 p.m.:372,,77,0,0.7228315,0.2871624,0,0,0.481280535459518,-0.5,0.404173046350479,0.325859755277634,0.49961718916893,0.423469752073288,,
19/07/2022 6:47:02 p.m.:397,,77,0,0.7228315,0.2871624,0,0,0.481280535459518,-0.5,0.404173046350479,0.325859755277634,0.49961718916893,0.423469752073288,,
19/07/2022 6:47:02 p.m.:426,,77,0,0.7228315,0.2871624,0,0,0.481280535459518,-0.5,0.404173046350479,0.325859755277634,0.49961718916893,0.423469752073288,,
19/07/2022 6:47:02 p.m.:447,,77,0,0.7228315,0.2871624,0,0,0.481280535459518,-0.5,0.404173046350479,0.325859755277634,0.49961718916893,0.423469752073288,,
19/07/2022 6:47:02 p.m.:473,,77,0,0.7228315,0.2871624,0,0,0.481280535459518,-0.5,0.404173046350479,0.325859755277634,0.49961718916893,0.423469752073288,,
19/07/2022 6:47:02 p.m.:496,,77,0,0.7228315,0.2871624,0,0,0.481280535459518,-0.5,0.404173046350479,0.325859755277634,0.49961718916893,0.423469752073288,,
19/07/2022 6:47:02 p.m.:516,,77,0,0.7228315,0.2871624,0,0,0.481280535459518,-0.5,0.404173046350479,0.325859755277634,0.49961718916893,0.423469752073288,,
19/07/2022 6:47:02 p.m.:539,,77,0,0.7228315,0.2871624,0,0,0.481280535459518,-0.5,0.404173046350479,0.325859755277634,0.49961718916893,0.423469752073288,,
19/07/2022 6:47:02 p.m.:562,,77,0,0.7228315,0.2871624,0,0,0.481280535459518,-0.5,0.404173046350479,0.325859755277634,0.49961718916893,0.423469752073288,,
19/07/2022 6:47:02 p.m.:584,,77,0,0.7228315,0.2871624,0,0,0.481280535459518,-0.5,0.404173046350479,0.325859755277634,0.49961718916893,0.423469752073288,,
19/07/2022 6:47:02 p.m.:604,,77,0,0.7228315,0.2871624,0,0,0.481280535459518,-0.5,0.404173046350479,0.325859755277634,0.49961718916893,0.423469752073288,,
19/07/2022 6:47:02 p.m.:628,,77,0,0.7228315,0.2871624,0,0,0.481280535459518,-0.5,0.404173046350479,0.325859755277634,0.49961718916893,0.423469752073288,,
19/07/2022 6:47:02 p.m.:649,,77,0,0.7228315,0.2871624,0,0,0.481280535459518,-0.5,0.404173046350479,0.325859755277634,0.49961718916893,0.423469752073288,,
19/07/2022 6:47:02 p.m.:674,,77,0,0.7228315,0.2871624,0,0,0.481280535459518,-0.5,0.404173046350479,0.325859755277634,0.49961718916893,0.423469752073288,,
19/07/2022 6:47:02 p.m.:701,,77,0,0.7228315,0.2871624,0,0,0.481280535459518,-0.5,0.404173046350479,0.325859755277634,0.49961718916893,0.423469752073288,,
19/07/2022 6:47:02 p.m.:722,,77,0,0.7228315,0.2871624,0,0,0.481280535459518,-0.5,0.404173046350479,0.325859755277634,0.49961718916893,0.423469752073288,,
19/07/2022 6:47:02 p.m.:743,,77,0,0.7228315,0.2871624,0,0,0.481280535459518,-0.5,0.404173046350479,0.325859755277634,0.49961718916893,0.423469752073288,,
19/07/2022 6:47:02 p.m.:762,,77,0,0.7228315,0.2871624,0,0,0.481280535459518,-0.5,0.404173046350479,0.325859755277634,0.49961718916893,0.423469752073288,,
19/07/2022 6:47:02 p.m.:783,,77,0,0.7228315,0.2871624,0,0,0.481280535459518,-0.5,0.404173046350479,0.325859755277634,0.49961718916893,0.423469752073288,,
19/07/2022 6:47:02 p.m.:807,,77,0,0.7228315,0.2871624,0,0,0.481280535459518,-0.5,0.404173046350479,0.325859755277634,0.49961718916893,0.423469752073288,,
19/07/2022 6:47:02 p.m.:840,,77,0,0.7228315,0.2871624,0,0,0.481280535459518,-0.5,0.404173046350479,0.325859755277634,0.49961718916893,0.423469752073288,,
19/07/2022 6:47:02 p.m.:862,,77,0,0.7228315,0.2871624,0,0,0.481280535459518,-0.5,0.404173046350479,0.325859755277634,0.49961718916893,0.423469752073288,,
19/07/2022 6:47:02 p.m.:884,,77,0,0.7228315,0.2871624,0,0,0.481280535459518,-0.5,0.404173046350479,0.325859755277634,0.49961718916893,0.423469752073288,,
19/07/2022 6:47:02 p.m.:904,,77,0,0.7228315,0.2871624,0,0,0.481280535459518,-0.5,0.404173046350479,0.325859755277634,0.49961718916893,0.423469752073288,,
19/07/2022 6:47:02 p.m.:925,,77,0,0.7228315,0.2871624,0,0,0.481280535459518,-0.5,0.404173046350479,0.325859755277634,0.49961718916893,0.423469752073288,,
19/07/2022 6:47:02 p.m.:955,,77,0,0.7228315,0.2871624,0,0,0.481280535459518,-0.5,0.404173046350479,0.325859755277634,0.49961718916893,0.423469752073288,,
19/07/2022 6:47:02 p.m.:976,,77,0,0.7228315,0.2871624,0,0,0.481280535459518,-0.5,0.404173046350479,0.325859755277634,0.49961718916893,0.423469752073288,,
19/07/2022 6:47:02 p.m.:998,,77,0,0.7228315,0.2871624,0,0,0.481280535459518,-0.5,0.404173046350479,0.325859755277634,0.49961718916893,0.423469752073288,,
19/07/2022 6:47:03 p.m.:19,,77,0,0.7228315,0.2871624,0,0,0.481280535459518,-0.5,0.404173046350479,0.325859755277634,0.49961718916893,0.423469752073288,,
19/07/2022 6:47:03 p.m.:41,,77,0,0.7228315,0.2871624,0,0,0.481280535459518,-0.5,0.404173046350479,0.325859755277634,0.49961718916893,0.423469752073288,,
19/07/2022 6:47:03 p.m.:62,,77,0,0.7228315,0.2871624,0,0,0.481280535459518,-0.5,0.404173046350479,0.325859755277634,0.49961718916893,0.423469752073288,,
19/07/2022 6:47:03 p.m.:84,,77,0,0.7228315,0.2871624,0,0,0.481280535459518,-0.5,0.404173046350479,0.325859755277634,0.49961718916893,0.423469752073288,,
19/07/2022 6:47:03 p.m.:109,,77,0,0.7228315,0.2871624,0,0,0.481280535459518,-0.5,0.404173046350479,0.325859755277634,0.49961718916893,0.423469752073288,,
19/07/2022 6:47:03 p.m.:131,,77,0,0.7228315,0.2871624,0,0,0.481280535459518,-0.5,0.404173046350479,0.325859755277634,0.49961718916893,0.423469752073288,,
19/07/2022 6:47:03 p.m.:153,,77,0,0.7228315,0.2871624,0,0,0.481280535459518,-0.5,0.404173046350479,0.325859755277634,0.49961718916893,0.423469752073288,,
19/07/2022 6:47:03 p.m.:175,,77,0,0.7228315,0.2871624,0,0,0.481280535459518,-0.5,0.404173046350479,0.325859755277634,0.49961718916893,0.423469752073288,,
19/07/2022 6:47:03 p.m.:195,,77,0,0.7228315,0.2871624,0,0,0.481280535459518,-0.5,0.404173046350479,0.325859755277634,0.49961718916893,0.423469752073288,,
19/07/2022 6:47:03 p.m.:216,,77,0,0.7228315,0.2871624,0,0,0.481280535459518,-0.5,0.404173046350479,0.325859755277634,0.49961718916893,0.423469752073288,,
19/07/2022 6:47:03 p.m.:239,,77,0,0.7228315,0.2871624,0,0,0.481280535459518,-0.5,0.404173046350479,0.325859755277634,0.49961718916893,0.423469752073288,,
19/07/2022 6:47:03 p.m.:266,,77,0,0.7228315,0.2871624,0,0,0.481280535459518,-0.5,0.404173046350479,0.325859755277634,0.49961718916893,0.423469752073288,,
19/07/2022 6:47:03 p.m.:286,,77,0,0.7228315,0.2871624,0,0,0.481280535459518,-0.5,0.404173046350479,0.325859755277634,0.49961718916893,0.423469752073288,,
19/07/2022 6:47:03 p.m.:307,,77,0,0.7228315,0.2871624,0,0,0.481280535459518,-0.5,0.404173046350479,0.325859755277634,0.49961718916893,0.423469752073288,,
19/07/2022 6:47:03 p.m.:326,,77,0,0.7228315,0.2871624,0,0,0.481280535459518,-0.5,0.404173046350479,0.325859755277634,0.49961718916893,0.423469752073288,,
19/07/2022 6:47:03 p.m.:347,,77,0,0.7228315,0.2871624,0,0,0.481280535459518,-0.5,0.404173046350479,0.325859755277634,0.49961718916893,0.423469752073288,,
19/07/2022 6:47:03 p.m.:368,,77,0,0.7228315,0.2871624,0,0,0.481280535459518,-0.5,0.404173046350479,0.325859755277634,0.49961718916893,0.423469752073288,,
19/07/2022 6:47:03 p.m.:401,,77,0,0.7228315,0.2871624,0,0,0.481280535459518,-0.5,0.404173046350479,0.325859755277634,0.49961718916893,0.423469752073288,,
19/07/2022 6:47:03 p.m.:419,,77,0,0.7228315,0.2871624,0,0,0.481280535459518,-0.5,0.404173046350479,0.325859755277634,0.49961718916893,0.423469752073288,,
19/07/2022 6:47:03 p.m.:439,,77,0,0.7228315,0.2871624,0,0,0.481280535459518,-0.5,0.404173046350479,0.325859755277634,0.49961718916893,0.423469752073288,,
19/07/2022 6:47:03 p.m.:460,,77,0,0.7228315,0.2871624,0,0,0.481280535459518,-0.5,0.404173046350479,0.325859755277634,0.49961718916893,0.423469752073288,,
19/07/2022 6:47:03 p.m.:482,,77,0,0.7228315,0.2871624,0,0,0.481280535459518,-0.5,0.404173046350479,0.325859755277634,0.49961718916893,0.423469752073288,,
19/07/2022 6:47:03 p.m.:504,,77,0,0.7228315,0.2871624,0,0,0.481280535459518,-0.5,0.404173046350479,0.325859755277634,0.49961718916893,0.423469752073288,,
19/07/2022 6:47:03 p.m.:524,,77,0,0.7228315,0.2871624,0,0,0.481280535459518,-0.5,0.404173046350479,0.325859755277634,0.49961718916893,0.423469752073288,,
19/07/2022 6:47:03 p.m.:550,,77,0,0.7228315,0.2871624,0,0,0.481280535459518,-0.5,0.404173046350479,0.325859755277634,0.49961718916893,0.423469752073288,,
19/07/2022 6:47:03 p.m.:571,,77,0,0.7228315,0.2871624,0,0,0.481280535459518,-0.5,0.404173046350479,0.325859755277634,0.49961718916893,0.423469752073288,,
19/07/2022 6:47:03 p.m.:591,,77,0,0.7228315,0.2871624,0,0,0.481280535459518,-0.5,0.404173046350479,0.325859755277634,0.49961718916893,0.423469752073288,,
19/07/2022 6:47:03 p.m.:612,,77,0,0.7228315,0.2871624,0,0,0.481280535459518,-0.5,0.404173046350479,0.325859755277634,0.49961718916893,0.423469752073288,,
19/07/2022 6:47:03 p.m.:631,,77,0,0.7228315,0.2871624,0,0,0.481280535459518,-0.5,0.404173046350479,0.325859755277634,0.49961718916893,0.423469752073288,,
19/07/2022 6:47:03 p.m.:652,,77,0,0.7228315,0.2871624,0,0,0.481280535459518,-0.5,0.404173046350479,0.325859755277634,0.49961718916893,0.423469752073288,,
19/07/2022 6:47:03 p.m.:685,,77,0,0.7228315,0.2871624,0,0,0.481280535459518,-0.5,0.404173046350479,0.325859755277634,0.49961718916893,0.423469752073288,,
19/07/2022 6:47:03 p.m.:707,,77,0,0.7228315,0.2871624,0,0,0.481280535459518,-0.5,0.404173046350479,0.325859755277634,0.49961718916893,0.423469752073288,,
19/07/2022 6:47:03 p.m.:730,,77,0,0.7228315,0.2871624,0,0,0.481280535459518,-0.5,0.404173046350479,0.325859755277634,0.49961718916893,0.423469752073288,,
19/07/2022 6:47:03 p.m.:752,,77,0,0.7228315,0.2871624,0,0,0.481280535459518,-0.5,0.404173046350479,0.325859755277634,0.49961718916893,0.423469752073288,,
19/07/2022 6:47:03 p.m.:772,,77,0,0.7228315,0.2871624,0,0,0.481280535459518,-0.5,0.404173046350479,0.325859755277634,0.49961718916893,0.423469752073288,,
19/07/2022 6:47:03 p.m.:791,,77,0,0.7228315,0.2871624,0,0,0.481280535459518,-0.5,0.404173046350479,0.325859755277634,0.49961718916893,0.423469752073288,,
19/07/2022 6:47:03 p.m.:809,,77,0,0.7228315,0.2871624,0,0,0.481280535459518,-0.5,0.404173046350479,0.325859755277634,0.49961718916893,0.423469752073288,,
19/07/2022 6:47:03 p.m.:841,,77,0,0.7228315,0.2871624,0,0,0.481280535459518,-0.5,0.404173046350479,0.325859755277634,0.49961718916893,0.423469752073288,,
19/07/2022 6:47:03 p.m.:860,,77,0,0.7228315,0.2871624,0,0,0.481280535459518,-0.5,0.404173046350479,0.325859755277634,0.49961718916893,0.423469752073288,,
19/07/2022 6:47:03 p.m.:881,,77,0,0.7228315,0.2871624,0,0,0.481280535459518,-0.5,0.404173046350479,0.325859755277634,0.49961718916893,0.423469752073288,,
19/07/2022 6:47:03 p.m.:901,,77,0,0.7228315,0.2871624,0,0,0.481280535459518,-0.5,0.404173046350479,0.325859755277634,0.49961718916893,0.423469752073288,,
19/07/2022 6:47:03 p.m.:919,,77,0,0.7228315,0.2871624,0,0,0.481280535459518,-0.5,0.404173046350479,0.325859755277634,0.49961718916893,0.423469752073288,,
19/07/2022 6:47:03 p.m.:939,,77,0,0.7228315,0.2871624,0,0,0.481280535459518,-0.5,0.404173046350479,0.325859755277634,0.49961718916893,0.423469752073288,,
19/07/2022 6:47:03 p.m.:963,,77,0,0.7228315,0.2871624,0,0,0.481280535459518,-0.5,0.404173046350479,0.325859755277634,0.49961718916893,0.423469752073288,,
19/07/2022 6:47:03 p.m.:987,,77,0,0.7228315,0.2871624,0,0,0.481280535459518,-0.5,0.404173046350479,0.325859755277634,0.49961718916893,0.423469752073288,,
19/07/2022 6:47:04 p.m.:6,,77,0,0.7228315,0.2871624,0,0,0.481280535459518,-0.5,0.404173046350479,0.325859755277634,0.49961718916893,0.423469752073288,,
19/07/2022 6:47:04 p.m.:26,,77,0,0.7228315,0.2871624,0,0,0.481280535459518,-0.5,0.404173046350479,0.325859755277634,0.49961718916893,0.423469752073288,,
19/07/2022 6:47:04 p.m.:49,,77,0,0.7228315,0.2871624,0,0,0.481280535459518,-0.5,0.404173046350479,0.325859755277634,0.49961718916893,0.423469752073288,,
19/07/2022 6:47:04 p.m.:71,,77,0,0.7228315,0.2871624,0,0,0.481280535459518,-0.5,0.404173046350479,0.325859755277634,0.49961718916893,0.423469752073288,,
19/07/2022 6:47:04 p.m.:93,,77,0,0.7228315,0.2871624,0,0,0.481280535459518,-0.5,0.404173046350479,0.325859755277634,0.49961718916893,0.423469752073288,,
19/07/2022 6:47:04 p.m.:123,,77,0,0.7228315,0.2871624,0,0,0.481280535459518,-0.5,0.404173046350479,0.325859755277634,0.49961718916893,0.423469752073288,,
19/07/2022 6:47:04 p.m.:142,,77,0,0.7228315,0.2871624,0,0,0.481280535459518,-0.5,0.404173046350479,0.325859755277634,0.49961718916893,0.423469752073288,,
19/07/2022 6:47:04 p.m.:164,,77,0,0.7228315,0.2871624,0,0,0.481280535459518,-0.5,0.404173046350479,0.325859755277634,0.49961718916893,0.423469752073288,,
19/07/2022 6:47:04 p.m.:184,,77,0,0.7228315,0.2871624,0,0,0.481280535459518,-0.5,0.404173046350479,0.325859755277634,0.49961718916893,0.423469752073288,,
19/07/2022 6:47:04 p.m.:205,,77,0,0.7228315,0.2871624,0,0,0.481280535459518,-0.5,0.404173046350479,0.325859755277634,0.49961718916893,0.423469752073288,,
19/07/2022 6:47:04 p.m.:226,,77,0,0.7228315,0.2871624,0,0,0.481280535459518,-0.5,0.404173046350479,0.325859755277634,0.49961718916893,0.423469752073288,,
19/07/2022 6:47:04 p.m.:251,,77,0,0.7228315,0.2871624,0,0,0.481280535459518,-0.5,0.404173046350479,0.325859755277634,0.49961718916893,0.423469752073288,,
19/07/2022 6:47:04 p.m.:281,,77,0,0.7228315,0.2871624,0,0,0.481280535459518,-0.5,0.404173046350479,0.325859755277634,0.49961718916893,0.423469752073288,,
19/07/2022 6:47:04 p.m.:306,,77,0,0.7228315,0.2871624,0,0,0.481280535459518,-0.5,0.404173046350479,0.325859755277634,0.49961718916893,0.423469752073288,,
19/07/2022 6:47:04 p.m.:327,,77,0,0.7228315,0.2871624,0,0,0.481280535459518,-0.5,0.404173046350479,0.325859755277634,0.49961718916893,0.423469752073288,,
19/07/2022 6:47:04 p.m.:348,,77,0,0.7228315,0.2871624,0,0,0.481280535459518,-0.5,0.404173046350479,0.325859755277634,0.49961718916893,0.423469752073288,,
19/07/2022 6:47:04 p.m.:369,,77,0,0.7228315,0.2871624,0,0,0.481280535459518,-0.5,0.404173046350479,0.325859755277634,0.49961718916893,0.423469752073288,,
19/07/2022 6:47:04 p.m.:394,,77,0,0.7228315,0.2871624,0,0,0.481280535459518,-0.5,0.404173046350479,0.325859755277634,0.49961718916893,0.423469752073288,,
19/07/2022 6:47:04 p.m.:420,,77,0,0.7228315,0.2871624,0,0,0.481280535459518,-0.5,0.404173046350479,0.325859755277634,0.49961718916893,0.423469752073288,,
19/07/2022 6:47:04 p.m.:440,,77,0,0.7228315,0.2871624,0,0,0.481280535459518,-0.5,0.404173046350479,0.325859755277634,0.49961718916893,0.423469752073288,,
19/07/2022 6:47:04 p.m.:460,,77,0,0.7228315,0.2871624,0,0,0.481280535459518,-0.5,0.404173046350479,0.325859755277634,0.49961718916893,0.423469752073288,,
19/07/2022 6:47:04 p.m.:481,,77,0,0.7228315,0.2871624,0,0,0.481280535459518,-0.5,0.404173046350479,0.325859755277634,0.49961718916893,0.423469752073288,,
19/07/2022 6:47:04 p.m.:503,,77,0,0.7228315,0.2871624,0,0,0.481280535459518,-0.5,0.404173046350479,0.325859755277634,0.49961718916893,0.423469752073288,,
19/07/2022 6:47:04 p.m.:525,,77,0,0.7228315,0.2871624,0,0,0.481280535459518,-0.5,0.404173046350479,0.325859755277634,0.49961718916893,0.423469752073288,,
19/07/2022 6:47:04 p.m.:552,,77,0,0.7228315,0.2871624,0,0,0.481280535459518,-0.5,0.404173046350479,0.325859755277634,0.49961718916893,0.423469752073288,,
19/07/2022 6:47:04 p.m.:573,,77,0,0.7228315,0.2871624,0,0,0.481280535459518,-0.5,0.404173046350479,0.325859755277634,0.49961718916893,0.423469752073288,,
19/07/2022 6:47:04 p.m.:594,,77,0,0.7228315,0.2871624,0,0,0.481280535459518,-0.5,0.404173046350479,0.325859755277634,0.49961718916893,0.423469752073288,,
19/07/2022 6:47:04 p.m.:616,,77,0,0.7228315,0.2871624,0,0,0.481280535459518,-0.5,0.404173046350479,0.325859755277634,0.49961718916893,0.423469752073288,,
19/07/2022 6:47:04 p.m.:656,,77,0,0.7228315,0.2871624,0,0,0.481280535459518,-0.5,0.404173046350479,0.325859755277634,0.49961718916893,0.423469752073288,,
19/07/2022 6:47:04 p.m.:683,,77,0,0.7228315,0.2871624,0,0,0.481280535459518,-0.5,0.404173046350479,0.325859755277634,0.49961718916893,0.423469752073288,,
19/07/2022 6:47:04 p.m.:705,,77,0,0.7228315,0.2871624,0,0,0.481280535459518,-0.5,0.404173046350479,0.325859755277634,0.49961718916893,0.423469752073288,,
19/07/2022 6:47:04 p.m.:728,,77,0,0.7228315,0.2871624,0,0,0.481280535459518,-0.5,0.404173046350479,0.325859755277634,0.49961718916893,0.423469752073288,,
19/07/2022 6:47:04 p.m.:749,,77,0,0.7228315,0.2871624,0,0,0.481280535459518,-0.5,0.404173046350479,0.325859755277634,0.49961718916893,0.423469752073288,,
19/07/2022 6:47:04 p.m.:769,,77,0,0.7228315,0.2871624,0,0,0.481280535459518,-0.5,0.404173046350479,0.325859755277634,0.49961718916893,0.423469752073288,,
19/07/2022 6:47:04 p.m.:790,,77,0,0.7228315,0.2871624,0,0,0.481280535459518,-0.5,0.404173046350479,0.325859755277634,0.49961718916893,0.423469752073288,,
19/07/2022 6:47:04 p.m.:817,,77,0,0.7228315,0.2871624,0,0,0.481280535459518,-0.5,0.404173046350479,0.325859755277634,0.49961718916893,0.423469752073288,,
19/07/2022 6:47:04 p.m.:840,,77,0,0.7228315,0.2871624,0,0,0.481280535459518,-0.5,0.404173046350479,0.325859755277634,0.49961718916893,0.423469752073288,,
19/07/2022 6:47:04 p.m.:861,,77,0,0.7228315,0.2871624,0,0,0.481280535459518,-0.5,0.404173046350479,0.325859755277634,0.49961718916893,0.423469752073288,,
19/07/2022 6:47:04 p.m.:881,,77,0,0.7228315,0.2871624,0,0,0.481280535459518,-0.5,0.404173046350479,0.325859755277634,0.49961718916893,0.423469752073288,,
19/07/2022 6:47:04 p.m.:901,,77,0,0.7228315,0.2871624,0,0,0.481280535459518,-0.5,0.404173046350479,0.325859755277634,0.49961718916893,0.423469752073288,,
19/07/2022 6:47:04 p.m.:930,,77,0,0.7228315,0.2871624,0,0,0.481280535459518,-0.5,0.404173046350479,0.325859755277634,0.49961718916893,0.423469752073288,,
19/07/2022 6:47:04 p.m.:953,,77,0,0.7228315,0.2871624,0,0,0.481280535459518,-0.5,0.404173046350479,0.325859755277634,0.49961718916893,0.423469752073288,,
19/07/2022 6:47:04 p.m.:973,,77,0,0.7228315,0.2871624,0,0,0.481280535459518,-0.5,0.404173046350479,0.325859755277634,0.49961718916893,0.423469752073288,,
19/07/2022 6:47:04 p.m.:993,,77,0,0.7228315,0.2871624,0,0,0.481280535459518,-0.5,0.404173046350479,0.325859755277634,0.49961718916893,0.423469752073288,,
19/07/2022 6:47:05 p.m.:15,,77,0,0.7228315,0.2871624,0,0,0.481280535459518,-0.5,0.404173046350479,0.325859755277634,0.49961718916893,0.423469752073288,,
19/07/2022 6:47:05 p.m.:37,,77,0,0.7228315,0.2871624,0,0,0.481280535459518,-0.5,0.404173046350479,0.325859755277634,0.49961718916893,0.423469752073288,,
19/07/2022 6:47:05 p.m.:67,,77,0,0.7228315,0.2871624,0,0,0.481280535459518,-0.5,0.404173046350479,0.325859755277634,0.49961718916893,0.423469752073288,,
19/07/2022 6:47:05 p.m.:86,,77,0,0.7228315,0.2871624,0,0,0.481280535459518,-0.5,0.404173046350479,0.325859755277634,0.49961718916893,0.423469752073288,,
19/07/2022 6:47:05 p.m.:107,,77,0,0.7228315,0.2871624,0,0,0.481280535459518,-0.5,0.404173046350479,0.325859755277634,0.49961718916893,0.423469752073288,,
19/07/2022 6:47:05 p.m.:128,,77,0,0.7228315,0.2871624,0,0,0.481280535459518,-0.5,0.404173046350479,0.325859755277634,0.49961718916893,0.423469752073288,,
19/07/2022 6:47:05 p.m.:148,,77,0,0.7228315,0.2871624,0,0,0.481280535459518,-0.5,0.404173046350479,0.325859755277634,0.49961718916893,0.423469752073288,,
19/07/2022 6:47:05 p.m.:172,,77,0,0.7228315,0.2871624,0,0,0.481280535459518,-0.5,0.404173046350479,0.325859755277634,0.49961718916893,0.423469752073288,,
19/07/2022 6:47:05 p.m.:204,,77,0,0.7228315,0.2871624,0,0,0.481280535459518,-0.5,0.404173046350479,0.325859755277634,0.49961718916893,0.423469752073288,,
19/07/2022 6:47:05 p.m.:224,,77,0,0.7228315,0.2871624,0,0,0.481280535459518,-0.5,0.404173046350479,0.325859755277634,0.49961718916893,0.423469752073288,,
19/07/2022 6:47:05 p.m.:249,,77,0,0.7228315,0.2871624,0,0,0.481280535459518,-0.5,0.404173046350479,0.325859755277634,0.49961718916893,0.423469752073288,,
19/07/2022 6:47:05 p.m.:271,,77,0,0.7228315,0.2871624,0,0,0.481280535459518,-0.5,0.404173046350479,0.325859755277634,0.49961718916893,0.423469752073288,,
19/07/2022 6:47:05 p.m.:292,,77,0,0.7228315,0.2871624,0,0,0.481280535459518,-0.5,0.404173046350479,0.325859755277634,0.49961718916893,0.423469752073288,,
19/07/2022 6:47:05 p.m.:317,,77,0,0.7228315,0.2871624,0,0,0.481280535459518,-0.5,0.404173046350479,0.325859755277634,0.49961718916893,0.423469752073288,,
19/07/2022 6:47:05 p.m.:345,,77,0,0.7228315,0.2871624,0,0,0.481280535459518,-0.5,0.404173046350479,0.325859755277634,0.49961718916893,0.423469752073288,,
19/07/2022 6:47:05 p.m.:364,,77,0,0.7228315,0.2871624,0,0,0.481280535459518,-0.5,0.404173046350479,0.325859755277634,0.49961718916893,0.423469752073288,,
19/07/2022 6:47:05 p.m.:385,,77,0,0.7228315,0.2871624,0,0,0.481280535459518,-0.5,0.404173046350479,0.325859755277634,0.49961718916893,0.423469752073288,,
19/07/2022 6:47:05 p.m.:403,,77,0,0.7228315,0.2871624,0,0,0.481280535459518,-0.5,0.404173046350479,0.325859755277634,0.49961718916893,0.423469752073288,,
19/07/2022 6:47:05 p.m.:425,,77,0,0.7228315,0.2871624,0,0,0.481280535459518,-0.5,0.404173046350479,0.325859755277634,0.49961718916893,0.423469752073288,,
19/07/2022 6:47:05 p.m.:449,,77,0,0.7228315,0.2871624,0,0,0.481280535459518,-0.5,0.404173046350479,0.325859755277634,0.49961718916893,0.423469752073288,,
19/07/2022 6:47:05 p.m.:476,,77,0,0.7228315,0.2871624,0,0,0.481280535459518,-0.5,0.404173046350479,0.325859755277634,0.49961718916893,0.423469752073288,,
19/07/2022 6:47:05 p.m.:496,,77,0,0.7228315,0.2871624,0,0,0.481280535459518,-0.5,0.404173046350479,0.325859755277634,0.49961718916893,0.423469752073288,,
19/07/2022 6:47:05 p.m.:515,,77,0,0.7228315,0.2871624,0,0,0.481280535459518,-0.5,0.404173046350479,0.325859755277634,0.49961718916893,0.423469752073288,,
19/07/2022 6:47:05 p.m.:538,,77,0,0.7228315,0.2871624,0,0,0.481280535459518,-0.5,0.404173046350479,0.325859755277634,0.49961718916893,0.423469752073288,,
19/07/2022 6:47:05 p.m.:559,,77,0,0.7228315,0.2871624,0,0,0.481280535459518,-0.5,0.404173046350479,0.325859755277634,0.49961718916893,0.423469752073288,,
19/07/2022 6:47:05 p.m.:584,,77,0,0.7228315,0.2871624,0,0,0.481280535459518,-0.5,0.404173046350479,0.325859755277634,0.49961718916893,0.423469752073288,,
19/07/2022 6:47:05 p.m.:613,,77,0,0.7228315,0.2871624,0,0,0.481280535459518,-0.5,0.404173046350479,0.325859755277634,0.49961718916893,0.423469752073288,,
19/07/2022 6:47:05 p.m.:635,,77,0,0.7228315,0.2871624,0,0,0.481280535459518,-0.5,0.404173046350479,0.325859755277634,0.49961718916893,0.423469752073288,,
19/07/2022 6:47:05 p.m.:653,,77,0,0.7228315,0.2871624,0,0,0.481280535459518,-0.5,0.404173046350479,0.325859755277634,0.49961718916893,0.423469752073288,,
19/07/2022 6:47:05 p.m.:673,,77,0,0.7228315,0.2871624,0,0,0.481280535459518,-0.5,0.404173046350479,0.325859755277634,0.49961718916893,0.423469752073288,,
19/07/2022 6:47:05 p.m.:694,,77,0,0.7228315,0.2871624,0,0,0.481280535459518,-0.5,0.404173046350479,0.325859755277634,0.49961718916893,0.423469752073288,,
19/07/2022 6:47:05 p.m.:718,,77,0,0.7228315,0.2871624,0,0,0.481280535459518,-0.5,0.404173046350479,0.325859755277634,0.49961718916893,0.423469752073288,,
19/07/2022 6:47:05 p.m.:743,,77,0,0.7228315,0.2871624,0,0,0.481280535459518,-0.5,0.404173046350479,0.325859755277634,0.49961718916893,0.423469752073288,,
19/07/2022 6:47:05 p.m.:763,,77,0,0.7228315,0.2871624,0,0,0.481280535459518,-0.5,0.404173046350479,0.325859755277634,0.49961718916893,0.423469752073288,,
19/07/2022 6:47:05 p.m.:784,,77,0,0.7228315,0.2871624,0,0,0.481280535459518,-0.5,0.404173046350479,0.325859755277634,0.49961718916893,0.423469752073288,,
19/07/2022 6:47:05 p.m.:806,,77,0,0.7228315,0.2871624,0,0,0.481280535459518,-0.5,0.404173046350479,0.325859755277634,0.49961718916893,0.423469752073288,,
19/07/2022 6:47:05 p.m.:827,,77,0,0.7228315,0.2871624,0,0,0.481280535459518,-0.5,0.404173046350479,0.325859755277634,0.49961718916893,0.423469752073288,,
19/07/2022 6:47:05 p.m.:850,,77,0,0.7228315,0.2871624,0,0,0.481280535459518,-0.5,0.404173046350479,0.325859755277634,0.49961718916893,0.423469752073288,,
19/07/2022 6:47:05 p.m.:878,,77,0,0.7228315,0.2871624,0,0,0.481280535459518,-0.5,0.404173046350479,0.325859755277634,0.49961718916893,0.423469752073288,,
19/07/2022 6:47:05 p.m.:897,,77,0,0.7228315,0.2871624,0,0,0.481280535459518,-0.5,0.404173046350479,0.325859755277634,0.49961718916893,0.423469752073288,,
19/07/2022 6:47:05 p.m.:917,,77,0,0.7228315,0.2871624,0,0,0.481280535459518,-0.5,0.404173046350479,0.325859755277634,0.49961718916893,0.423469752073288,,
19/07/2022 6:47:05 p.m.:938,,77,0,0.7228315,0.2871624,0,0,0.481280535459518,-0.5,0.404173046350479,0.325859755277634,0.49961718916893,0.423469752073288,,
19/07/2022 6:47:05 p.m.:959,,77,0,0.7228315,0.2871624,0,0,0.481280535459518,-0.5,0.404173046350479,0.325859755277634,0.49961718916893,0.423469752073288,,
19/07/2022 6:47:05 p.m.:979,,77,0,0.7228315,0.2871624,0,0,0.481280535459518,-0.5,0.404173046350479,0.325859755277634,0.49961718916893,0.423469752073288,,
19/07/2022 6:47:06 p.m.:9,,77,0,0.7228315,0.2871624,0,0,0.481280535459518,-0.5,0.404173046350479,0.325859755277634,0.49961718916893,0.423469752073288,,
19/07/2022 6:47:06 p.m.:27,,77,0,0.7228315,0.2871624,0,0,0.481280535459518,-0.5,0.404173046350479,0.325859755277634,0.49961718916893,0.423469752073288,,
19/07/2022 6:47:06 p.m.:48,,77,0,0.7228315,0.2871624,0,0,0.481280535459518,-0.5,0.404173046350479,0.325859755277634,0.49961718916893,0.423469752073288,,
19/07/2022 6:47:06 p.m.:67,,77,0,0.7228315,0.2871624,0,0,0.481280535459518,-0.5,0.404173046350479,0.325859755277634,0.49961718916893,0.423469752073288,,
19/07/2022 6:47:06 p.m.:85,,77,0,0.7228315,0.2871624,0,0,0.481280535459518,-0.5,0.404173046350479,0.325859755277634,0.49961718916893,0.423469752073288,,
19/07/2022 6:47:06 p.m.:104,,77,0,0.7228315,0.2871624,0,0,0.481280535459518,-0.5,0.404173046350479,0.325859755277634,0.49961718916893,0.423469752073288,,
19/07/2022 6:47:06 p.m.:124,,77,0,0.7228315,0.2871624,0,0,0.481280535459518,-0.5,0.404173046350479,0.325859755277634,0.49961718916893,0.423469752073288,,
19/07/2022 6:47:06 p.m.:149,,77,0,0.7228315,0.2871624,0,0,0.481280535459518,-0.5,0.404173046350479,0.325859755277634,0.49961718916893,0.423469752073288,,
19/07/2022 6:47:06 p.m.:171,,77,0,0.7228315,0.2871624,0,0,0.481280535459518,-0.5,0.404173046350479,0.325859755277634,0.49961718916893,0.423469752073288,,
19/07/2022 6:47:06 p.m.:190,,77,0,0.7228315,0.2871624,0,0,0.481280535459518,-0.5,0.404173046350479,0.325859755277634,0.49961718916893,0.423469752073288,,
19/07/2022 6:47:06 p.m.:208,,77,0,0.7228315,0.2871624,0,0,0.481280535459518,-0.5,0.404173046350479,0.325859755277634,0.49961718916893,0.423469752073288,,
19/07/2022 6:47:06 p.m.:228,,77,0,0.7228315,0.2871624,0,0,0.481280535459518,-0.5,0.404173046350479,0.325859755277634,0.49961718916893,0.423469752073288,,
19/07/2022 6:47:06 p.m.:251,,77,0,0.7228315,0.2871624,0,0,0.481280535459518,-0.5,0.404173046350479,0.325859755277634,0.49961718916893,0.423469752073288,,
19/07/2022 6:47:06 p.m.:279,,77,0,0.7228315,0.2871624,0,0,0.481280535459518,-0.5,0.404173046350479,0.325859755277634,0.49961718916893,0.423469752073288,,
19/07/2022 6:47:06 p.m.:300,,77,0,0.7228315,0.2871624,0,0,0.481280535459518,-0.5,0.404173046350479,0.325859755277634,0.49961718916893,0.423469752073288,,
19/07/2022 6:47:06 p.m.:319,,77,0,0.7228315,0.2871624,0,0,0.481280535459518,-0.5,0.404173046350479,0.325859755277634,0.49961718916893,0.423469752073288,,
19/07/2022 6:47:06 p.m.:339,,77,0,0.7228315,0.2871624,0,0,0.481280535459518,-0.5,0.404173046350479,0.325859755277634,0.49961718916893,0.423469752073288,,
19/07/2022 6:47:06 p.m.:360,,77,0,0.7228315,0.2871624,0,0,0.481280535459518,-0.5,0.404173046350479,0.325859755277634,0.49961718916893,0.423469752073288,,
19/07/2022 6:47:06 p.m.:381,,77,0,0.7228315,0.2871624,0,0,0.481280535459518,-0.5,0.404173046350479,0.325859755277634,0.49961718916893,0.423469752073288,,
19/07/2022 6:47:06 p.m.:411,,77,0,0.7228315,0.2871624,0,0,0.481280535459518,-0.5,0.404173046350479,0.325859755277634,0.49961718916893,0.423469752073288,,
19/07/2022 6:47:06 p.m.:429,,77,0,0.7228315,0.2871624,0,0,0.481280535459518,-0.5,0.404173046350479,0.325859755277634,0.49961718916893,0.423469752073288,,
19/07/2022 6:47:06 p.m.:449,,77,0,0.7228315,0.2871624,0,0,0.481280535459518,-0.5,0.404173046350479,0.325859755277634,0.49961718916893,0.423469752073288,,
19/07/2022 6:47:06 p.m.:469,,77,0,0.7228315,0.2871624,0,0,0.481280535459518,-0.5,0.404173046350479,0.325859755277634,0.49961718916893,0.423469752073288,,
19/07/2022 6:47:06 p.m.:492,,77,0,0.7228315,0.2871624,0,0,0.481280535459518,-0.5,0.404173046350479,0.325859755277634,0.49961718916893,0.423469752073288,,
19/07/2022 6:47:06 p.m.:512,,77,0,0.7228315,0.2871624,0,0,0.481280535459518,-0.5,0.404173046350479,0.325859755277634,0.49961718916893,0.423469752073288,,
19/07/2022 6:47:06 p.m.:541,,77,0,0.7228315,0.2871624,0,0,0.481280535459518,-0.5,0.404173046350479,0.325859755277634,0.49961718916893,0.423469752073288,,
19/07/2022 6:47:06 p.m.:560,,77,0,0.7228315,0.2871624,0,0,0.481280535459518,-0.5,0.404173046350479,0.325859755277634,0.49961718916893,0.423469752073288,,
19/07/2022 6:47:06 p.m.:581,,77,0,0.7228315,0.2871624,0,0,0.481280535459518,-0.5,0.404173046350479,0.325859755277634,0.49961718916893,0.423469752073288,,
19/07/2022 6:47:06 p.m.:603,,77,0,0.7228315,0.2871624,0,0,0.481280535459518,-0.5,0.404173046350479,0.325859755277634,0.49961718916893,0.423469752073288,,
19/07/2022 6:47:06 p.m.:623,,77,0,0.7228315,0.2871624,0,0,0.481280535459518,-0.5,0.404173046350479,0.325859755277634,0.49961718916893,0.423469752073288,,
19/07/2022 6:47:06 p.m.:643,,77,0,0.7228315,0.2871624,0,0,0.481280535459518,-0.5,0.404173046350479,0.325859755277634,0.49961718916893,0.423469752073288,,
19/07/2022 6:47:06 p.m.:671,,77,0,0.7228315,0.2871624,0,0,0.481280535459518,-0.5,0.404173046350479,0.325859755277634,0.49961718916893,0.423469752073288,,
19/07/2022 6:47:06 p.m.:691,,77,0,0.7228315,0.2871624,0,0,0.481280535459518,-0.5,0.404173046350479,0.325859755277634,0.49961718916893,0.423469752073288,,
19/07/2022 6:47:06 p.m.:712,,77,0,0.7228315,0.2871624,0,0,0.481280535459518,-0.5,0.404173046350479,0.325859755277634,0.49961718916893,0.423469752073288,,
19/07/2022 6:47:06 p.m.:730,,77,0,0.7228315,0.2871624,0,0,0.481280535459518,-0.5,0.404173046350479,0.325859755277634,0.49961718916893,0.423469752073288,,
19/07/2022 6:47:06 p.m.:750,,77,0,0.7228315,0.2871624,0,0,0.481280535459518,-0.5,0.404173046350479,0.325859755277634,0.49961718916893,0.423469752073288,,
19/07/2022 6:47:06 p.m.:770,,77,0,0.7228315,0.2871624,0,0,0.481280535459518,-0.5,0.404173046350479,0.325859755277634,0.49961718916893,0.423469752073288,,
19/07/2022 6:47:06 p.m.:790,,77,0,0.7228315,0.2871624,0,0,0.481280535459518,-0.5,0.404173046350479,0.325859755277634,0.49961718916893,0.423469752073288,,
19/07/2022 6:47:06 p.m.:817,,77,0,0.7228315,0.2871624,0,0,0.481280535459518,-0.5,0.404173046350479,0.325859755277634,0.49961718916893,0.423469752073288,,
19/07/2022 6:47:06 p.m.:841,,77,0,0.7228315,0.2871624,0,0,0.481280535459518,-0.5,0.404173046350479,0.325859755277634,0.49961718916893,0.423469752073288,,
19/07/2022 6:47:06 p.m.:861,,77,0,0.7228315,0.2871624,0,0,0.481280535459518,-0.5,0.404173046350479,0.325859755277634,0.49961718916893,0.423469752073288,,
19/07/2022 6:47:06 p.m.:880,,77,0,0.7228315,0.2871624,0,0,0.481280535459518,-0.5,0.404173046350479,0.325859755277634,0.49961718916893,0.423469752073288,,
19/07/2022 6:47:06 p.m.:900,,77,0,0.7228315,0.2871624,0,0,0.481280535459518,-0.5,0.404173046350479,0.325859755277634,0.49961718916893,0.423469752073288,,
19/07/2022 6:47:06 p.m.:918,,77,0,0.7228315,0.2871624,0,0,0.481280535459518,-0.5,0.404173046350479,0.325859755277634,0.49961718916893,0.423469752073288,,
19/07/2022 6:47:06 p.m.:946,,77,0,0.7228315,0.2871624,0,0,0.481280535459518,-0.5,0.404173046350479,0.325859755277634,0.49961718916893,0.423469752073288,,
19/07/2022 6:47:06 p.m.:974,,77,0,0.7228315,0.2871624,0,0,0.481280535459518,-0.5,0.404173046350479,0.325859755277634,0.49961718916893,0.423469752073288,,
19/07/2022 6:47:06 p.m.:993,,77,0,0.7228315,0.2871624,0,0,0.481280535459518,-0.5,0.404173046350479,0.325859755277634,0.49961718916893,0.423469752073288,,
19/07/2022 6:47:07 p.m.:12,,77,0,0.7228315,0.2871624,0,0,0.481280535459518,-0.5,0.404173046350479,0.325859755277634,0.49961718916893,0.423469752073288,,
19/07/2022 6:47:07 p.m.:31,,77,0,0.7228315,0.2871624,0,0,0.481280535459518,-0.5,0.404173046350479,0.325859755277634,0.49961718916893,0.423469752073288,,
19/07/2022 6:47:07 p.m.:53,,77,0,0.7228315,0.2871624,0,0,0.481280535459518,-0.5,0.404173046350479,0.325859755277634,0.49961718916893,0.423469752073288,,
19/07/2022 6:47:07 p.m.:75,,77,0,0.7228315,0.2871624,0,0,0.481280535459518,-0.5,0.404173046350479,0.325859755277634,0.49961718916893,0.423469752073288,,
19/07/2022 6:47:07 p.m.:101,,77,0,0.7228315,0.2871624,0,0,0.481280535459518,-0.5,0.404173046350479,0.325859755277634,0.49961718916893,0.423469752073288,,
19/07/2022 6:47:07 p.m.:119,,77,0,0.7228315,0.2871624,0,0,0.481280535459518,-0.5,0.404173046350479,0.325859755277634,0.49961718916893,0.423469752073288,,
19/07/2022 6:47:07 p.m.:140,,77,0,0.7228315,0.2871624,0,0,0.481280535459518,-0.5,0.404173046350479,0.325859755277634,0.49961718916893,0.423469752073288,,
19/07/2022 6:47:07 p.m.:160,,77,0,0.7228315,0.2871624,0,0,0.481280535459518,-0.5,0.404173046350479,0.325859755277634,0.49961718916893,0.423469752073288,,
19/07/2022 6:47:07 p.m.:180,,77,0,0.7228315,0.2871624,0,0,0.481280535459518,-0.5,0.404173046350479,0.325859755277634,0.49961718916893,0.423469752073288,,
19/07/2022 6:47:07 p.m.:202,,77,0,0.7228315,0.2871624,0,0,0.481280535459518,-0.5,0.404173046350479,0.325859755277634,0.49961718916893,0.423469752073288,,
19/07/2022 6:47:07 p.m.:229,,77,0,0.7228315,0.2871624,0,0,0.481280535459518,-0.5,0.404173046350479,0.325859755277634,0.49961718916893,0.423469752073288,,
19/07/2022 6:47:07 p.m.:249,,77,0,0.7228315,0.2871624,0,0,0.481280535459518,-0.5,0.404173046350479,0.325859755277634,0.49961718916893,0.423469752073288,,
19/07/2022 6:47:07 p.m.:270,,77,0,0.7228315,0.2871624,0,0,0.481280535459518,-0.5,0.404173046350479,0.325859755277634,0.49961718916893,0.423469752073288,,
19/07/2022 6:47:07 p.m.:290,,77,0,0.7228315,0.2871624,0,0,0.481280535459518,-0.5,0.404173046350479,0.325859755277634,0.49961718916893,0.423469752073288,,
19/07/2022 6:47:07 p.m.:309,,77,0,0.7228315,0.2871624,0,0,0.481280535459518,-0.5,0.404173046350479,0.325859755277634,0.49961718916893,0.423469752073288,,
19/07/2022 6:47:07 p.m.:328,,77,0,0.7228315,0.2871624,0,0,0.481280535459518,-0.5,0.404173046350479,0.325859755277634,0.49961718916893,0.423469752073288,,
19/07/2022 6:47:07 p.m.:355,,77,0,0.7228315,0.2871624,0,0,0.481280535459518,-0.5,0.404173046350479,0.325859755277634,0.49961718916893,0.423469752073288,,
19/07/2022 6:47:07 p.m.:378,,77,0,0.7228315,0.2871624,0,0,0.481280535459518,-0.5,0.404173046350479,0.325859755277634,0.49961718916893,0.423469752073288,,
19/07/2022 6:47:07 p.m.:397,,77,0,0.7228315,0.2871624,0,0,0.481280535459518,-0.5,0.404173046350479,0.325859755277634,0.49961718916893,0.423469752073288,,
19/07/2022 6:47:07 p.m.:416,,77,0,0.7228315,0.2871624,0,0,0.481280535459518,-0.5,0.404173046350479,0.325859755277634,0.49961718916893,0.423469752073288,,
19/07/2022 6:47:07 p.m.:438,,77,0,0.7228315,0.2871624,0,0,0.481280535459518,-0.5,0.404173046350479,0.325859755277634,0.49961718916893,0.423469752073288,,
19/07/2022 6:47:07 p.m.:459,,77,0,0.7228315,0.2871624,0,0,0.481280535459518,-0.5,0.404173046350479,0.325859755277634,0.49961718916893,0.423469752073288,,
19/07/2022 6:47:07 p.m.:490,,77,0,0.7228315,0.2871624,0,0,0.481280535459518,-0.5,0.404173046350479,0.325859755277634,0.49961718916893,0.423469752073288,,
19/07/2022 6:47:07 p.m.:510,,77,0,0.7228315,0.2871624,0,0,0.481280535459518,-0.5,0.404173046350479,0.325859755277634,0.49961718916893,0.423469752073288,,
19/07/2022 6:47:07 p.m.:529,,77,0,0.7228315,0.2871624,0,0,0.481280535459518,-0.5,0.404173046350479,0.325859755277634,0.49961718916893,0.423469752073288,,
19/07/2022 6:47:07 p.m.:548,,77,0,0.7228315,0.2871624,0,0,0.481280535459518,-0.5,0.404173046350479,0.325859755277634,0.49961718916893,0.423469752073288,,
19/07/2022 6:47:07 p.m.:568,,77,0,0.7228315,0.2871624,0,0,0.481280535459518,-0.5,0.404173046350479,0.325859755277634,0.49961718916893,0.423469752073288,,
19/07/2022 6:47:07 p.m.:593,,77,0,0.7228315,0.2871624,0,0,0.481280535459518,-0.5,0.404173046350479,0.325859755277634,0.49961718916893,0.423469752073288,,
19/07/2022 6:47:07 p.m.:616,,77,0,0.7228315,0.2871624,0,0,0.481280535459518,-0.5,0.404173046350479,0.325859755277634,0.49961718916893,0.423469752073288,,
19/07/2022 6:47:07 p.m.:635,,77,0,0.7228315,0.2871624,0,0,0.481280535459518,-0.5,0.404173046350479,0.325859755277634,0.49961718916893,0.423469752073288,,
19/07/2022 6:47:07 p.m.:656,,77,0,0.7228315,0.2871624,0,0,0.481280535459518,-0.5,0.404173046350479,0.325859755277634,0.49961718916893,0.423469752073288,,
19/07/2022 6:47:07 p.m.:674,,77,0,0.7228315,0.2871624,0,0,0.481280535459518,-0.5,0.404173046350479,0.325859755277634,0.49961718916893,0.423469752073288,,
19/07/2022 6:47:07 p.m.:696,,77,0,0.7228315,0.2871624,0,0,0.481280535459518,-0.5,0.404173046350479,0.325859755277634,0.49961718916893,0.423469752073288,,
19/07/2022 6:47:07 p.m.:718,,77,0,0.7228315,0.2871624,0,0,0.481280535459518,-0.5,0.404173046350479,0.325859755277634,0.49961718916893,0.423469752073288,,
19/07/2022 6:47:07 p.m.:744,,77,0,0.7228315,0.2871624,0,0,0.481280535459518,-0.5,0.404173046350479,0.325859755277634,0.49961718916893,0.423469752073288,,
19/07/2022 6:47:07 p.m.:763,,77,0,0.7228315,0.2871624,0,0,0.481280535459518,-0.5,0.404173046350479,0.325859755277634,0.49961718916893,0.423469752073288,,
19/07/2022 6:47:07 p.m.:783,,77,0,0.7228315,0.2871624,0,0,0.481280535459518,-0.5,0.404173046350479,0.325859755277634,0.49961718916893,0.423469752073288,,
19/07/2022 6:47:07 p.m.:804,,77,0,0.7228315,0.2871624,0,0,0.481280535459518,-0.5,0.404173046350479,0.325859755277634,0.49961718916893,0.423469752073288,,
19/07/2022 6:47:07 p.m.:825,,77,0,0.7228315,0.2871624,0,0,0.481280535459518,-0.5,0.404173046350479,0.325859755277634,0.49961718916893,0.423469752073288,,
19/07/2022 6:47:07 p.m.:849,,77,0,0.7228315,0.2871624,0,0,0.481280535459518,-0.5,0.404173046350479,0.325859755277634,0.49961718916893,0.423469752073288,,
19/07/2022 6:47:07 p.m.:877,,77,0,0.7228315,0.2871624,0,0,0.481280535459518,-0.5,0.404173046350479,0.325859755277634,0.49961718916893,0.423469752073288,,
19/07/2022 6:47:07 p.m.:896,,77,0,0.7228315,0.2871624,0,0,0.481280535459518,-0.5,0.404173046350479,0.325859755277634,0.49961718916893,0.423469752073288,,
19/07/2022 6:47:07 p.m.:917,,77,0,0.7228315,0.2871624,0,0,0.481280535459518,-0.5,0.404173046350479,0.325859755277634,0.49961718916893,0.423469752073288,,
19/07/2022 6:47:07 p.m.:936,,77,0,0.7228315,0.2871624,0,0,0.481280535459518,-0.5,0.404173046350479,0.325859755277634,0.49961718916893,0.423469752073288,,
19/07/2022 6:47:07 p.m.:956,,77,0,0.7228315,0.2871624,0,0,0.481280535459518,-0.5,0.404173046350479,0.325859755277634,0.49961718916893,0.423469752073288,,
19/07/2022 6:47:07 p.m.:974,,77,0,0.7228315,0.2871624,0,0,0.481280535459518,-0.5,0.404173046350479,0.325859755277634,0.49961718916893,0.423469752073288,,
19/07/2022 6:47:07 p.m.:998,,77,0,0.7228315,0.2871624,0,0,0.481280535459518,-0.5,0.404173046350479,0.325859755277634,0.49961718916893,0.423469752073288,,
19/07/2022 6:47:08 p.m.:17,,77,0,0.7228315,0.2871624,0,0,0.481280535459518,-0.5,0.404173046350479,0.325859755277634,0.49961718916893,0.423469752073288,,
19/07/2022 6:47:08 p.m.:42,,77,0,0.7228315,0.2871624,0,0,0.481280535459518,-0.5,0.404173046350479,0.325859755277634,0.49961718916893,0.423469752073288,,
19/07/2022 6:47:08 p.m.:62,,77,0,0.7228315,0.2871624,0,0,0.481280535459518,-0.5,0.404173046350479,0.325859755277634,0.49961718916893,0.423469752073288,,
19/07/2022 6:47:08 p.m.:82,,77,0,0.7228315,0.2871624,0,0,0.481280535459518,-0.5,0.404173046350479,0.325859755277634,0.49961718916893,0.423469752073288,,
19/07/2022 6:47:08 p.m.:102,,77,0,0.7228315,0.2871624,0,0,0.481280535459518,-0.5,0.404173046350479,0.325859755277634,0.49961718916893,0.423469752073288,,
19/07/2022 6:47:08 p.m.:127,,77,0,0.7228315,0.2871624,0,0,0.481280535459518,-0.5,0.404173046350479,0.325859755277634,0.49961718916893,0.423469752073288,,
19/07/2022 6:47:08 p.m.:149,,77,0,0.7228315,0.2871624,0,0,0.481280535459518,-0.5,0.404173046350479,0.325859755277634,0.49961718916893,0.423469752073288,,
19/07/2022 6:47:08 p.m.:169,,77,0,0.7228315,0.2871624,0,0,0.481280535459518,-0.5,0.404173046350479,0.325859755277634,0.49961718916893,0.423469752073288,,
19/07/2022 6:47:08 p.m.:191,,77,0,0.7228315,0.2871624,0,0,0.481280535459518,-0.5,0.404173046350479,0.325859755277634,0.49961718916893,0.423469752073288,,
19/07/2022 6:47:08 p.m.:211,,77,0,0.7228315,0.2871624,0,0,0.481280535459518,-0.5,0.404173046350479,0.325859755277634,0.49961718916893,0.423469752073288,,
19/07/2022 6:47:08 p.m.:232,,77,0,0.7228315,0.2871624,0,0,0.481280535459518,-0.5,0.404173046350479,0.325859755277634,0.49961718916893,0.423469752073288,,
19/07/2022 6:47:08 p.m.:265,,77,0,0.7228315,0.2871624,0,0,0.481280535459518,-0.5,0.404173046350479,0.325859755277634,0.49961718916893,0.423469752073288,,
19/07/2022 6:47:08 p.m.:285,,77,0,0.7228315,0.2871624,0,0,0.481280535459518,-0.5,0.404173046350479,0.325859755277634,0.49961718916893,0.423469752073288,,
19/07/2022 6:47:08 p.m.:306,,77,0,0.7228315,0.2871624,0,0,0.481280535459518,-0.5,0.404173046350479,0.325859755277634,0.49961718916893,0.423469752073288,,
19/07/2022 6:47:08 p.m.:327,,77,0,0.7228315,0.2871624,0,0,0.481280535459518,-0.5,0.404173046350479,0.325859755277634,0.49961718916893,0.423469752073288,,
19/07/2022 6:47:08 p.m.:348,,77,0,0.7228315,0.2871624,0,0,0.481280535459518,-0.5,0.404173046350479,0.325859755277634,0.49961718916893,0.423469752073288,,
19/07/2022 6:47:08 p.m.:371,,77,0,0.7228315,0.2871624,0,0,0.481280535459518,-0.5,0.404173046350479,0.325859755277634,0.49961718916893,0.423469752073288,,
19/07/2022 6:47:08 p.m.:399,,77,0,0.7228315,0.2871624,0,0,0.481280535459518,-0.5,0.404173046350479,0.325859755277634,0.49961718916893,0.423469752073288,,
19/07/2022 6:47:08 p.m.:418,,77,0,0.7228315,0.2871624,0,0,0.481280535459518,-0.5,0.404173046350479,0.325859755277634,0.49961718916893,0.423469752073288,,
19/07/2022 6:47:08 p.m.:439,,77,0,0.7228315,0.2871624,0,0,0.481280535459518,-0.5,0.404173046350479,0.325859755277634,0.49961718916893,0.423469752073288,,
19/07/2022 6:47:08 p.m.:459,,77,0,0.7228315,0.2871624,0,0,0.481280535459518,-0.5,0.404173046350479,0.325859755277634,0.49961718916893,0.423469752073288,,
19/07/2022 6:47:08 p.m.:481,,77,0,0.7228315,0.2871624,0,0,0.481280535459518,-0.5,0.404173046350479,0.325859755277634,0.49961718916893,0.423469752073288,,
19/07/2022 6:47:08 p.m.:502,,77,0,0.7228315,0.2871624,0,0,0.481280535459518,-0.5,0.404173046350479,0.325859755277634,0.49961718916893,0.423469752073288,,
19/07/2022 6:47:08 p.m.:531,,77,0,0.7228315,0.2871624,0,0,0.481280535459518,-0.5,0.404173046350479,0.325859755277634,0.49961718916893,0.423469752073288,,
19/07/2022 6:47:08 p.m.:550,,77,0,0.7228315,0.2871624,0,0,0.481280535459518,-0.5,0.404173046350479,0.325859755277634,0.49961718916893,0.423469752073288,,
19/07/2022 6:47:08 p.m.:570,,77,0,0.7228315,0.2871624,0,0,0.481280535459518,-0.5,0.404173046350479,0.325859755277634,0.49961718916893,0.423469752073288,,
19/07/2022 6:47:08 p.m.:593,,77,0,0.7228315,0.2871624,0,0,0.481280535459518,-0.5,0.404173046350479,0.325859755277634,0.49961718916893,0.423469752073288,,
19/07/2022 6:47:08 p.m.:614,,77,0,0.7228315,0.2871624,0,0,0.481280535459518,-0.5,0.404173046350479,0.325859755277634,0.49961718916893,0.423469752073288,,
19/07/2022 6:47:08 p.m.:637,,77,0,0.7228315,0.2871624,0,0,0.481280535459518,-0.5,0.404173046350479,0.325859755277634,0.49961718916893,0.423469752073288,,
19/07/2022 6:47:08 p.m.:664,,77,0,0.7228315,0.2871624,0,0,0.481280535459518,-0.5,0.404173046350479,0.325859755277634,0.49961718916893,0.423469752073288,,
19/07/2022 6:47:08 p.m.:684,,77,0,0.7228315,0.2871624,0,0,0.481280535459518,-0.5,0.404173046350479,0.325859755277634,0.49961718916893,0.423469752073288,,
19/07/2022 6:47:08 p.m.:705,,77,0,0.7228315,0.2871624,0,0,0.481280535459518,-0.5,0.404173046350479,0.325859755277634,0.49961718916893,0.423469752073288,,
19/07/2022 6:47:08 p.m.:725,,77,0,0.7228315,0.2871624,0,0,0.481280535459518,-0.5,0.404173046350479,0.325859755277634,0.49961718916893,0.423469752073288,,
19/07/2022 6:47:08 p.m.:744,,77,0,0.7228315,0.2871624,0,0,0.481280535459518,-0.5,0.404173046350479,0.325859755277634,0.49961718916893,0.423469752073288,,
19/07/2022 6:47:08 p.m.:767,,77,0,0.7228315,0.2871624,0,0,0.481280535459518,-0.5,0.404173046350479,0.325859755277634,0.49961718916893,0.423469752073288,,
19/07/2022 6:47:08 p.m.:792,,77,0,0.7228315,0.2871624,0,0,0.481280535459518,-0.5,0.404173046350479,0.325859755277634,0.49961718916893,0.423469752073288,,
19/07/2022 6:47:08 p.m.:814,,77,0,0.7228315,0.2871624,0,0,0.481280535459518,-0.5,0.404173046350479,0.325859755277634,0.49961718916893,0.423469752073288,,
19/07/2022 6:47:08 p.m.:835,,77,0,0.7228315,0.2871624,0,0,0.481280535459518,-0.5,0.404173046350479,0.325859755277634,0.49961718916893,0.423469752073288,,
19/07/2022 6:47:08 p.m.:856,,77,0,0.7228315,0.2871624,0,0,0.481280535459518,-0.5,0.404173046350479,0.325859755277634,0.49961718916893,0.423469752073288,,
19/07/2022 6:47:08 p.m.:875,,77,0,0.7228315,0.2871624,0,0,0.481280535459518,-0.5,0.404173046350479,0.325859755277634,0.49961718916893,0.423469752073288,,
19/07/2022 6:47:08 p.m.:896,,77,0,0.7228315,0.2871624,0,0,0.481280535459518,-0.5,0.404173046350479,0.325859755277634,0.49961718916893,0.423469752073288,,
19/07/2022 6:47:08 p.m.:924,,77,0,0.7228315,0.2871624,0,0,0.481280535459518,-0.5,0.404173046350479,0.325859755277634,0.49961718916893,0.423469752073288,,
19/07/2022 6:47:08 p.m.:946,,77,0,0.7228315,0.2871624,0,0,0.481280535459518,-0.5,0.404173046350479,0.325859755277634,0.49961718916893,0.423469752073288,,
19/07/2022 6:47:08 p.m.:967,,77,0,0.7228315,0.2871624,0,0,0.481280535459518,-0.5,0.404173046350479,0.325859755277634,0.49961718916893,0.423469752073288,,
19/07/2022 6:47:08 p.m.:986,,77,0,0.7228315,0.2871624,0,0,0.481280535459518,-0.5,0.404173046350479,0.325859755277634,0.49961718916893,0.423469752073288,,
19/07/2022 6:47:09 p.m.:7,,77,0,0.7228315,0.2871624,0,0,0.481280535459518,-0.5,0.404173046350479,0.325859755277634,0.49961718916893,0.423469752073288,,
19/07/2022 6:47:09 p.m.:31,,77,0,0.7228315,0.2871624,0,0,0.481280535459518,-0.5,0.404173046350479,0.325859755277634,0.49961718916893,0.423469752073288,,
19/07/2022 6:47:09 p.m.:57,,77,0,0.7228315,0.2871624,0,0,0.481280535459518,-0.5,0.404173046350479,0.325859755277634,0.49961718916893,0.423469752073288,,
19/07/2022 6:47:09 p.m.:78,,77,0,0.7228315,0.2871624,0,0,0.481280535459518,-0.5,0.404173046350479,0.325859755277634,0.49961718916893,0.423469752073288,,
19/07/2022 6:47:09 p.m.:97,,77,0,0.7228315,0.2871624,0,0,0.481280535459518,-0.5,0.404173046350479,0.325859755277634,0.49961718916893,0.423469752073288,,
19/07/2022 6:47:09 p.m.:118,,77,0,0.7228315,0.2871624,0,0,0.481280535459518,-0.5,0.404173046350479,0.325859755277634,0.49961718916893,0.423469752073288,,
19/07/2022 6:47:09 p.m.:141,,77,0,0.7228315,0.2871624,0,0,0.481280535459518,-0.5,0.404173046350479,0.325859755277634,0.49961718916893,0.423469752073288,,
19/07/2022 6:47:09 p.m.:163,,77,0,0.7228315,0.2871624,0,0,0.481280535459518,-0.5,0.404173046350479,0.325859755277634,0.49961718916893,0.423469752073288,,
19/07/2022 6:47:09 p.m.:190,,77,0,0.7228315,0.2871624,0,0,0.481280535459518,-0.5,0.404173046350479,0.325859755277634,0.49961718916893,0.423469752073288,,
19/07/2022 6:47:09 p.m.:210,,77,0,0.7228315,0.2871624,0,0,0.481280535459518,-0.5,0.404173046350479,0.325859755277634,0.49961718916893,0.423469752073288,,
19/07/2022 6:47:09 p.m.:232,,77,0,0.7228315,0.2871624,0,0,0.481280535459518,-0.5,0.404173046350479,0.325859755277634,0.49961718916893,0.423469752073288,,
19/07/2022 6:47:09 p.m.:256,,77,0,0.7228315,0.2871624,0,0,0.481280535459518,-0.5,0.404173046350479,0.325859755277634,0.49961718916893,0.423469752073288,,
19/07/2022 6:47:09 p.m.:274,,77,0,0.7228315,0.2871624,0,0,0.481280535459518,-0.5,0.404173046350479,0.325859755277634,0.49961718916893,0.423469752073288,,
19/07/2022 6:47:09 p.m.:294,,77,0,0.7228315,0.2871624,0,0,0.481280535459518,-0.5,0.404173046350479,0.325859755277634,0.49961718916893,0.423469752073288,,
19/07/2022 6:47:09 p.m.:322,,77,0,0.7228315,0.2871624,0,0,0.481280535459518,-0.5,0.404173046350479,0.325859755277634,0.49961718916893,0.423469752073288,,
19/07/2022 6:47:09 p.m.:344,,77,0,0.7228315,0.2871624,0,0,0.481280535459518,-0.5,0.404173046350479,0.325859755277634,0.49961718916893,0.423469752073288,,
19/07/2022 6:47:09 p.m.:367,,77,0,0.7228315,0.2871624,0,0,0.481280535459518,-0.5,0.404173046350479,0.325859755277634,0.49961718916893,0.423469752073288,,
19/07/2022 6:47:09 p.m.:385,,77,0,0.7228315,0.2871624,0,0,0.481280535459518,-0.5,0.404173046350479,0.325859755277634,0.49961718916893,0.423469752073288,,
19/07/2022 6:47:09 p.m.:405,,77,0,0.7228315,0.2871624,0,0,0.481280535459518,-0.5,0.404173046350479,0.325859755277634,0.49961718916893,0.423469752073288,,
19/07/2022 6:47:09 p.m.:425,,77,0,0.7228315,0.2871624,0,0,0.481280535459518,-0.5,0.404173046350479,0.325859755277634,0.49961718916893,0.423469752073288,,
19/07/2022 6:47:09 p.m.:453,,77,0,0.7228315,0.2871624,0,0,0.481280535459518,-0.5,0.404173046350479,0.325859755277634,0.49961718916893,0.423469752073288,,
19/07/2022 6:47:09 p.m.:474,,77,0,0.7228315,0.2871624,0,0,0.481280535459518,-0.5,0.404173046350479,0.325859755277634,0.49961718916893,0.423469752073288,,
19/07/2022 6:47:09 p.m.:494,,77,0,0.7228315,0.2871624,0,0,0.481280535459518,-0.5,0.404173046350479,0.325859755277634,0.49961718916893,0.423469752073288,,
19/07/2022 6:47:09 p.m.:514,,77,0,0.7228315,0.2871624,0,0,0.481280535459518,-0.5,0.404173046350479,0.325859755277634,0.49961718916893,0.423469752073288,,
19/07/2022 6:47:09 p.m.:535,,77,0,0.7228315,0.2871624,0,0,0.481280535459518,-0.5,0.404173046350479,0.325859755277634,0.49961718916893,0.423469752073288,,
19/07/2022 6:47:09 p.m.:556,,77,0,0.7228315,0.2871624,0,0,0.481280535459518,-0.5,0.404173046350479,0.325859755277634,0.49961718916893,0.423469752073288,,
19/07/2022 6:47:09 p.m.:587,,77,0,0.7228315,0.2871624,0,0,0.481280535459518,-0.5,0.404173046350479,0.325859755277634,0.49961718916893,0.423469752073288,,
19/07/2022 6:47:09 p.m.:611,,77,0,0.7228315,0.2871624,0,0,0.481280535459518,-0.5,0.404173046350479,0.325859755277634,0.49961718916893,0.423469752073288,,
19/07/2022 6:47:09 p.m.:636,,77,0,0.7228315,0.2871624,0,0,0.481280535459518,-0.5,0.404173046350479,0.325859755277634,0.49961718916893,0.423469752073288,,
19/07/2022 6:47:09 p.m.:657,,77,0,0.7228315,0.2871624,0,0,0.481280535459518,-0.5,0.404173046350479,0.325859755277634,0.49961718916893,0.423469752073288,,
19/07/2022 6:47:09 p.m.:679,,77,0,0.7228315,0.2871624,0,0,0.481280535459518,-0.5,0.404173046350479,0.325859755277634,0.49961718916893,0.423469752073288,,
19/07/2022 6:47:09 p.m.:699,,77,0,0.7228315,0.2871624,0,0,0.481280535459518,-0.5,0.404173046350479,0.325859755277634,0.49961718916893,0.423469752073288,,
19/07/2022 6:47:09 p.m.:720,,77,0,0.7228315,0.2871624,0,0,0.481280535459518,-0.5,0.404173046350479,0.325859755277634,0.49961718916893,0.423469752073288,,
19/07/2022 6:47:09 p.m.:748,,77,0,0.7228315,0.2871624,0,0,0.481280535459518,-0.5,0.404173046350479,0.325859755277634,0.49961718916893,0.423469752073288,,
19/07/2022 6:47:09 p.m.:769,,77,0,0.7228315,0.2871624,0,0,0.481280535459518,-0.5,0.404173046350479,0.325859755277634,0.49961718916893,0.423469752073288,,
19/07/2022 6:47:09 p.m.:793,,77,0,0.7228315,0.2871624,0,0,0.481280535459518,-0.5,0.404173046350479,0.325859755277634,0.49961718916893,0.423469752073288,,
19/07/2022 6:47:09 p.m.:814,,77,0,0.7228315,0.2871624,0,0,0.481280535459518,-0.5,0.404173046350479,0.325859755277634,0.49961718916893,0.423469752073288,,
19/07/2022 6:47:09 p.m.:835,,77,0,0.7228315,0.2871624,0,0,0.481280535459518,-0.5,0.404173046350479,0.325859755277634,0.49961718916893,0.423469752073288,,
19/07/2022 6:47:09 p.m.:861,,77,0,0.7228315,0.2871624,0,0,0.481280535459518,-0.5,0.404173046350479,0.325859755277634,0.49961718916893,0.423469752073288,,
19/07/2022 6:47:09 p.m.:881,,77,0,0.7228315,0.2871624,0,0,0.481280535459518,-0.5,0.404173046350479,0.325859755277634,0.49961718916893,0.423469752073288,,
19/07/2022 6:47:09 p.m.:904,,77,0,0.7228315,0.2871624,0,0,0.481280535459518,-0.5,0.404173046350479,0.325859755277634,0.49961718916893,0.423469752073288,,
19/07/2022 6:47:09 p.m.:925,,77,0,0.7228315,0.2871624,0,0,0.481280535459518,-0.5,0.404173046350479,0.325859755277634,0.49961718916893,0.423469752073288,,
19/07/2022 6:47:09 p.m.:946,,77,0,0.7228315,0.2871624,0,0,0.481280535459518,-0.5,0.404173046350479,0.325859755277634,0.49961718916893,0.423469752073288,,
19/07/2022 6:47:09 p.m.:968,,77,0,0.7228315,0.2871624,0,0,0.481280535459518,-0.5,0.404173046350479,0.325859755277634,0.49961718916893,0.423469752073288,,
19/07/2022 6:47:09 p.m.:993,,77,0,0.7228315,0.2871624,0,0,0.481280535459518,-0.5,0.404173046350479,0.325859755277634,0.49961718916893,0.423469752073288,,
19/07/2022 6:47:10 p.m.:16,,77,0,0.7228315,0.2871624,0,0,0.481280535459518,-0.5,0.404173046350479,0.325859755277634,0.49961718916893,0.423469752073288,,
19/07/2022 6:47:10 p.m.:36,,77,0,0.7228315,0.2871624,0,0,0.481280535459518,-0.5,0.404173046350479,0.325859755277634,0.49961718916893,0.423469752073288,,
19/07/2022 6:47:10 p.m.:57,,77,0,0.7228315,0.2871624,0,0,0.481280535459518,-0.5,0.404173046350479,0.325859755277634,0.49961718916893,0.423469752073288,,
19/07/2022 6:47:10 p.m.:76,,77,0,0.7228315,0.2871624,0,0,0.481280535459518,-0.5,0.404173046350479,0.325859755277634,0.49961718916893,0.423469752073288,,
19/07/2022 6:47:10 p.m.:98,,77,0,0.7228315,0.2871624,0,0,0.481280535459518,-0.5,0.404173046350479,0.325859755277634,0.49961718916893,0.423469752073288,,
19/07/2022 6:47:10 p.m.:126,,77,0,0.7228315,0.2871624,0,0,0.481280535459518,-0.5,0.404173046350479,0.325859755277634,0.49961718916893,0.423469752073288,,
19/07/2022 6:47:10 p.m.:147,,77,0,0.7228315,0.2871624,0,0,0.481280535459518,-0.5,0.404173046350479,0.325859755277634,0.49961718916893,0.423469752073288,,
19/07/2022 6:47:10 p.m.:168,,77,0,0.7228315,0.2871624,0,0,0.481280535459518,-0.5,0.404173046350479,0.325859755277634,0.49961718916893,0.423469752073288,,
19/07/2022 6:47:10 p.m.:189,,77,0,0.7228315,0.2871624,0,0,0.481280535459518,-0.5,0.404173046350479,0.325859755277634,0.49961718916893,0.423469752073288,,
19/07/2022 6:47:10 p.m.:208,,77,0,0.7228315,0.2871624,0,0,0.481280535459518,-0.5,0.404173046350479,0.325859755277634,0.49961718916893,0.423469752073288,,
19/07/2022 6:47:10 p.m.:231,,77,0,0.7228315,0.2871624,0,0,0.481280535459518,-0.5,0.404173046350479,0.325859755277634,0.49961718916893,0.423469752073288,,
19/07/2022 6:47:10 p.m.:257,,77,0,0.7228315,0.2871624,0,0,0.481280535459518,-0.5,0.404173046350479,0.325859755277634,0.49961718916893,0.423469752073288,,
19/07/2022 6:47:10 p.m.:286,,77,0,0.7228315,0.2871624,0,0,0.481280535459518,-0.5,0.404173046350479,0.325859755277634,0.49961718916893,0.423469752073288,,
19/07/2022 6:47:10 p.m.:305,,77,0,0.7228315,0.2871624,0,0,0.481280535459518,-0.5,0.404173046350479,0.325859755277634,0.49961718916893,0.423469752073288,,
19/07/2022 6:47:10 p.m.:341,,77,0,0.7228315,0.2871624,0,0,0.481280535459518,-0.5,0.404173046350479,0.325859755277634,0.49961718916893,0.423469752073288,,
19/07/2022 6:47:10 p.m.:377,,77,0,0.7228315,0.2871624,0,0,0.481280535459518,-0.5,0.404173046350479,0.325859755277634,0.49961718916893,0.423469752073288,,
19/07/2022 6:47:10 p.m.:399,,77,0,0.7228315,0.2871624,0,0,0.481280535459518,-0.5,0.404173046350479,0.325859755277634,0.49961718916893,0.423469752073288,,
19/07/2022 6:47:10 p.m.:417,,77,0,0.7228315,0.2871624,0,0,0.481280535459518,-0.5,0.404173046350479,0.325859755277634,0.49961718916893,0.423469752073288,,
19/07/2022 6:47:10 p.m.:437,,77,0,0.7228315,0.2871624,0,0,0.481280535459518,-0.5,0.404173046350479,0.325859755277634,0.49961718916893,0.423469752073288,,
19/07/2022 6:47:10 p.m.:460,,77,0,0.7228315,0.2871624,0,0,0.481280535459518,-0.5,0.404173046350479,0.325859755277634,0.49961718916893,0.423469752073288,,
19/07/2022 6:47:10 p.m.:484,,77,0,0.7228315,0.2871624,0,0,0.481280535459518,-0.5,0.404173046350479,0.325859755277634,0.49961718916893,0.423469752073288,,
19/07/2022 6:47:10 p.m.:513,,77,0,0.7228315,0.2871624,0,0,0.481280535459518,-0.5,0.404173046350479,0.325859755277634,0.49961718916893,0.423469752073288,,
19/07/2022 6:47:10 p.m.:534,,77,0,0.7228315,0.2871624,0,0,0.481280535459518,-0.5,0.404173046350479,0.325859755277634,0.49961718916893,0.423469752073288,,
19/07/2022 6:47:10 p.m.:554,,77,0,0.7228315,0.2871624,0,0,0.481280535459518,-0.5,0.404173046350479,0.325859755277634,0.49961718916893,0.423469752073288,,
19/07/2022 6:47:10 p.m.:575,,77,0,0.7228315,0.2871624,0,0,0.481280535459518,-0.5,0.404173046350479,0.325859755277634,0.49961718916893,0.423469752073288,,
19/07/2022 6:47:10 p.m.:595,,77,0,0.7228315,0.2871624,0,0,0.481280535459518,-0.5,0.404173046350479,0.325859755277634,0.49961718916893,0.423469752073288,,
19/07/2022 6:47:10 p.m.:617,,77,0,0.7228315,0.2871624,0,0,0.481280535459518,-0.5,0.404173046350479,0.325859755277634,0.49961718916893,0.423469752073288,,
19/07/2022 6:47:10 p.m.:645,,77,0,0.7228315,0.2871624,0,0,0.481280535459518,-0.5,0.404173046350479,0.325859755277634,0.49961718916893,0.423469752073288,,
19/07/2022 6:47:10 p.m.:665,,77,0,0.7228315,0.2871624,0,0,0.481280535459518,-0.5,0.404173046350479,0.325859755277634,0.49961718916893,0.423469752073288,,
19/07/2022 6:47:10 p.m.:689,,77,0,0.7228315,0.2871624,0,0,0.481280535459518,-0.5,0.404173046350479,0.325859755277634,0.49961718916893,0.423469752073288,,
19/07/2022 6:47:10 p.m.:709,,77,0,0.7228315,0.2871624,0,0,0.481280535459518,-0.5,0.404173046350479,0.325859755277634,0.49961718916893,0.423469752073288,,
19/07/2022 6:47:10 p.m.:730,,77,0,0.7228315,0.2871624,0,0,0.481280535459518,-0.5,0.404173046350479,0.325859755277634,0.49961718916893,0.423469752073288,,
19/07/2022 6:47:10 p.m.:752,,77,0,0.7228315,0.2871624,0,0,0.481280535459518,-0.5,0.404173046350479,0.325859755277634,0.49961718916893,0.423469752073288,,
19/07/2022 6:47:10 p.m.:780,,77,0,0.7228315,0.2871624,0,0,0.481280535459518,-0.5,0.404173046350479,0.325859755277634,0.49961718916893,0.423469752073288,,
19/07/2022 6:47:10 p.m.:804,,77,0,0.7228315,0.2871624,0,0,0.481280535459518,-0.5,0.404173046350479,0.325859755277634,0.49961718916893,0.423469752073288,,
19/07/2022 6:47:10 p.m.:824,,77,0,0.7228315,0.2871624,0,0,0.481280535459518,-0.5,0.404173046350479,0.325859755277634,0.49961718916893,0.423469752073288,,
19/07/2022 6:47:10 p.m.:845,,77,0,0.7228315,0.2871624,0,0,0.481280535459518,-0.5,0.404173046350479,0.325859755277634,0.49961718916893,0.423469752073288,,
19/07/2022 6:47:10 p.m.:865,,77,0,0.7228315,0.2871624,0,0,0.481280535459518,-0.5,0.404173046350479,0.325859755277634,0.49961718916893,0.423469752073288,,
19/07/2022 6:47:10 p.m.:884,,77,0,0.7228315,0.2871624,0,0,0.481280535459518,-0.5,0.404173046350479,0.325859755277634,0.49961718916893,0.423469752073288,,
19/07/2022 6:47:10 p.m.:911,,77,0,0.7228315,0.2871624,0,0,0.481280535459518,-0.5,0.404173046350479,0.325859755277634,0.49961718916893,0.423469752073288,,
19/07/2022 6:47:10 p.m.:932,,77,0,0.7228315,0.2871624,0,0,0.481280535459518,-0.5,0.404173046350479,0.325859755277634,0.49961718916893,0.423469752073288,,
19/07/2022 6:47:10 p.m.:953,,77,0,0.7228315,0.2871624,0,0,0.481280535459518,-0.5,0.404173046350479,0.325859755277634,0.49961718916893,0.423469752073288,,
19/07/2022 6:47:10 p.m.:974,,77,0,0.7228315,0.2871624,0,0,0.481280535459518,-0.5,0.404173046350479,0.325859755277634,0.49961718916893,0.423469752073288,,
19/07/2022 6:47:10 p.m.:993,,77,0,0.7228315,0.2871624,0,0,0.481280535459518,-0.5,0.404173046350479,0.325859755277634,0.49961718916893,0.423469752073288,,
19/07/2022 6:47:11 p.m.:16,,77,0,0.7228315,0.2871624,0,0,0.481280535459518,-0.5,0.404173046350479,0.325859755277634,0.49961718916893,0.423469752073288,,
19/07/2022 6:47:11 p.m.:38,,77,0,0.7228315,0.2871624,0,0,0.481280535459518,-0.5,0.404173046350479,0.325859755277634,0.49961718916893,0.423469752073288,,
19/07/2022 6:47:11 p.m.:65,,77,0,0.7228315,0.2871624,0,0,0.481280535459518,-0.5,0.404173046350479,0.5,0.5,0.5,,
19/07/2022 6:47:11 p.m.:85,,77,0,0.7228315,0.2871624,0,0,0.5,0.5,0.5,0.5,0.5,0.5,,
19/07/2022 6:47:11 p.m.:105,,77,0,0.7228315,0.2871624,0,0,0.5,0.5,0.5,0.5,0.5,0.5,,
19/07/2022 6:47:11 p.m.:127,,77,0,0.7228315,0.2871624,0,0,0.5,0.5,0.5,0.5,0.5,0.5,,
19/07/2022 6:47:11 p.m.:148,,77,0,0.7183329,0.2923358,0,0,0.5,0.5,0.5,0.5,0.5,0.5,,
19/07/2022 6:47:11 p.m.:169,,77,0,0.7183329,0.2923358,0,0,0.5,0.5,0.5,0.5,0.5,0.5,,
19/07/2022 6:47:11 p.m.:190,,77,0,0.7183329,0.2923358,0,0,0.5,0.5,0.5,0.5,0.5,0.5,,
19/07/2022 6:47:11 p.m.:236,,77,0,0.7183329,0.2923358,0,0,0.5,0.5,0.5,-0.5,-0.5,-0.5,,
19/07/2022 6:47:11 p.m.:262,,77,0,0.7183329,0.2923358,0,0,-0.5,0.111922472715378,-0.5,-0.5,-0.5,-0.5,,
19/07/2022 6:47:11 p.m.:285,,77,0,0.7159972,0.2929557,0,0,-0.5,0.111922472715378,-0.5,-0.5,-0.5,-0.5,,
19/07/2022 6:47:11 p.m.:306,,77,0,0.7159972,0.2929557,0,0,-0.5,0.111922472715378,-0.5,-0.5,-0.5,-0.5,,
19/07/2022 6:47:11 p.m.:327,,77,0,0.7159972,0.2929557,0,0,-0.5,0.111922472715378,-0.5,-0.5,-0.5,-0.5,,
19/07/2022 6:47:11 p.m.:357,,77,0,0.7159972,0.2929557,0,0,-0.5,0.111922472715378,-0.5,-0.5,-0.5,-0.5,,
19/07/2022 6:47:11 p.m.:398,,77,0,0.7159972,0.2929557,0,0,-0.5,0.111922472715378,-0.5,-0.5,-0.5,-0.5,,
19/07/2022 6:47:11 p.m.:418,,77,0,0.7172099,0.2860044,0,0,-0.5,0.111922472715378,-0.5,-0.5,-0.5,-0.5,,
19/07/2022 6:47:11 p.m.:438,,77,0,0.7172099,0.2860044,0,0,-0.5,0.111922472715378,-0.5,-0.5,-0.5,-0.5,,
19/07/2022 6:47:11 p.m.:460,,77,0,0.7172099,0.2860044,0,0,-0.5,-0.220154881477356,-0.5,-0.5,-0.5,-0.5,,
19/07/2022 6:47:11 p.m.:495,,77,0,0.7172099,0.2860044,0,0,-0.5,-0.220154881477356,-0.5,-0.5,-0.5,-0.5,,
19/07/2022 6:47:11 p.m.:516,,77,0,0.7186853,0.2839567,0,0,-0.5,-0.220154881477356,-0.5,-0.5,-0.5,-0.5,,
19/07/2022 6:47:11 p.m.:551,,77,0,0.7186853,0.2839567,0,0,-0.5,-0.220154881477356,-0.5,-0.5,-0.5,-0.5,,
19/07/2022 6:47:11 p.m.:571,,77,0,0.7186853,0.2839567,0,0,-0.5,-0.220154881477356,-0.5,-0.5,-0.5,-0.5,,
19/07/2022 6:47:11 p.m.:595,,77,0,0.7186853,0.2839567,0,0,-0.5,-0.220154881477356,-0.5,-0.5,-0.5,-0.5,,
19/07/2022 6:47:11 p.m.:615,,77,0,0.7200104,0.2830876,0,0,-0.5,-0.220154881477356,-0.5,-0.5,-0.5,-0.5,,
19/07/2022 6:47:11 p.m.:643,,77,0,0.7200104,0.2830876,0,0,-0.5,-0.180087134242058,-0.5,-0.5,-0.5,-0.5,,
19/07/2022 6:47:11 p.m.:662,,77,0,0.7200104,0.2830876,0,0,-0.5,-0.180087134242058,-0.5,-0.5,-0.5,-0.5,,
19/07/2022 6:47:11 p.m.:684,,77,0,0.7200104,0.2830876,0,0,-0.5,-0.180087134242058,-0.5,-0.5,-0.5,-0.5,,
19/07/2022 6:47:11 p.m.:720,,77,0,0.7200104,0.2830876,0,0,-0.5,-0.180087134242058,-0.5,-0.5,-0.5,-0.5,,
19/07/2022 6:47:11 p.m.:743,,77,0,0.7156743,0.2891822,0,0,-0.5,-0.180087134242058,-0.5,-0.5,-0.5,-0.5,,
19/07/2022 6:47:11 p.m.:765,,77,0,0.7156743,0.2891822,0,0,-0.5,-0.180087134242058,-0.5,-0.5,-0.5,-0.5,,
19/07/2022 6:47:11 p.m.:793,,77,0,0.7156743,0.2891822,0,0,-0.5,-0.180087134242058,-0.5,-0.5,-0.5,-0.5,,
19/07/2022 6:47:11 p.m.:816,,77,0,0.7156743,0.2891822,0,0,-0.5,-0.0981955379247665,-0.5,-0.5,-0.5,-0.5,,
19/07/2022 6:47:11 p.m.:837,,77,0,0.7136921,0.2908397,0,0,-0.5,-0.0981955379247665,-0.5,-0.5,-0.5,-0.5,,
19/07/2022 6:47:11 p.m.:870,,77,0,0.7136921,0.2908397,0,0,-0.5,-0.0981955379247665,-0.5,-0.5,-0.5,-0.5,,
19/07/2022 6:47:11 p.m.:890,,77,0,0.7136921,0.2908397,0,0,-0.5,-0.0981955379247665,-0.5,-0.5,-0.5,-0.5,,
19/07/2022 6:47:11 p.m.:924,,77,0,0.7136921,0.2908397,0,0,-0.5,-0.0981955379247665,-0.5,-0.5,-0.5,-0.5,,
19/07/2022 6:47:11 p.m.:946,,77,0,0.712625,0.2897847,0,0,-0.5,-0.0981955379247665,-0.5,-0.5,-0.5,-0.5,,
19/07/2022 6:47:11 p.m.:969,,77,0,0.712625,0.2897847,0,0,-0.5,-0.0981955379247665,-0.5,0.5,0.5,0.5,,
19/07/2022 6:47:11 p.m.:990,,77,0,0.712625,0.2897847,0,0,0.5,0.00676596583798528,0.5,0.5,0.5,0.5,,
19/07/2022 6:47:12 p.m.:27,,77,0,0.712625,0.2897847,0,0,0.5,0.00676596583798528,0.5,0.5,0.5,0.5,,
19/07/2022 6:47:12 p.m.:59,,77,0,0.712625,0.2897847,0,0,0.5,0.00676596583798528,0.5,0.5,0.5,0.5,,
19/07/2022 6:47:12 p.m.:79,,77,0,0.7062216,0.3021365,0,0,0.5,0.00676596583798528,0.5,0.5,0.5,0.5,,
19/07/2022 6:47:12 p.m.:102,,77,0,0.7062216,0.3021365,0,0,0.5,0.00676596583798528,0.5,0.5,0.5,0.5,,
19/07/2022 6:47:12 p.m.:124,,77,0,0.7062216,0.3021365,0,0,0.5,0.00676596583798528,0.5,0.5,0.5,0.5,,
19/07/2022 6:47:12 p.m.:146,,77,0,0.7062216,0.3021365,0,0,0.5,0.0138337556272745,0.5,0.5,0.5,0.5,,
19/07/2022 6:47:12 p.m.:195,,77,0,0.7062216,0.3021365,0,0,0.5,0.0138337556272745,0.5,0.5,0.5,0.5,,
19/07/2022 6:47:12 p.m.:216,,77,0,0.6928807,0.3232059,0,0,0.5,0.0138337556272745,0.5,0.5,0.5,0.5,,
19/07/2022 6:47:12 p.m.:237,,77,0,0.6928807,0.3232059,0,0,0.5,0.0138337556272745,0.5,0.5,0.5,0.5,,
19/07/2022 6:47:12 p.m.:258,,77,0,0.6928807,0.3232059,0,0,0.5,0.0138337556272745,0.5,0.5,0.5,0.5,,
19/07/2022 6:47:12 p.m.:283,,77,0,0.6928807,0.3232059,0,0,0.5,0.0138337556272745,0.5,0.5,0.5,0.5,,
19/07/2022 6:47:12 p.m.:306,,77,0,0.6821762,0.338541,0,0,0.5,0.0138337556272745,0.5,0.5,0.5,0.348779588937759,,
19/07/2022 6:47:12 p.m.:355,,77,0,0.6821762,0.338541,0,0,-0.5,-0.5,0.5,0.5,0.5,0.348779588937759,,
19/07/2022 6:47:12 p.m.:383,,77,0,0.6821762,0.338541,0,0,-0.5,-0.5,0.5,0.5,0.5,0.348779588937759,,
19/07/2022 6:47:12 p.m.:407,,77,0,0.6821762,0.338541,0,0,-0.5,-0.5,0.5,0.5,0.5,0.348779588937759,,
19/07/2022 6:47:12 p.m.:427,,77,0,0.662919,0.3640748,0,0,-0.5,-0.5,0.5,0.5,0.5,0.348779588937759,,
19/07/2022 6:47:12 p.m.:449,,77,0,0.662919,0.3640748,0,0,-0.5,-0.5,0.5,0.5,0.5,0.348779588937759,,
19/07/2022 6:47:12 p.m.:471,,77,0,0.662919,0.3640748,0,0,-0.5,-0.5,0.5,0.5,0.5,0.348779588937759,,
19/07/2022 6:47:12 p.m.:524,,77,0,0.662919,0.3640748,0,0,-0.5,-0.5,0.5,0.5,0.466913253068924,0.164049476385117,,
19/07/2022 6:47:12 p.m.:550,,77,0,0.662919,0.3640748,0,0,-0.5,-0.5,0.5,0.5,0.466913253068924,0.164049476385117,,
19/07/2022 6:47:12 p.m.:571,,77,0,0.6571223,0.3723845,0,0,-0.5,-0.5,0.5,0.5,0.466913253068924,0.164049476385117,,
19/07/2022 6:47:12 p.m.:593,,77,0,0.6571223,0.3723845,0,0,-0.5,-0.5,0.5,0.5,0.466913253068924,0.164049476385117,,
19/07/2022 6:47:12 p.m.:613,,77,0,0.6571223,0.3723845,0,0,-0.5,-0.5,0.5,0.5,0.466913253068924,0.164049476385117,,
19/07/2022 6:47:12 p.m.:634,,77,0,0.6571223,0.3723845,0,0,-0.5,-0.5,0.5,0.5,0.466913253068924,0.164049476385117,,
19/07/2022 6:47:12 p.m.:690,,77,0,0.6571223,0.3723845,0,0,-0.5,-0.5,0.5,0.5,0.466913253068924,0.164049476385117,,
19/07/2022 6:47:12 p.m.:713,,77,0,0.6627454,0.3666055,0,0,-0.5,-0.5,0.5,-0.126168042421341,-0.0811369121074677,-0.0347769483923912,,
19/07/2022 6:47:12 p.m.:736,,77,0,0.6627454,0.3666055,0,0,0.5,0.5,-0.0936111956834793,-0.126168042421341,-0.0811369121074677,-0.0347769483923912,,
19/07/2022 6:47:12 p.m.:760,,77,0,0.6627454,0.3666055,0,0,0.5,0.5,-0.0936111956834793,-0.126168042421341,-0.0811369121074677,-0.0347769483923912,,
19/07/2022 6:47:12 p.m.:782,,77,0,0.6515849,0.3777442,0,0,0.5,0.5,-0.0936111956834793,-0.126168042421341,-0.0811369121074677,-0.0347769483923912,,
19/07/2022 6:47:12 p.m.:811,,77,0,0.6515849,0.3777442,0,0,0.5,0.5,-0.0936111956834793,-0.126168042421341,-0.0811369121074677,-0.0347769483923912,,
19/07/2022 6:47:12 p.m.:855,,77,0,0.6515849,0.3777442,0,0,0.5,0.5,-0.0936111956834793,-0.126168042421341,-0.0811369121074677,-0.0347769483923912,,
19/07/2022 6:47:12 p.m.:882,,77,0,0.6515849,0.3777442,0,0,0.5,0.5,-0.0936111956834793,-0.126168042421341,-0.0811369121074677,-0.0347769483923912,,
19/07/2022 6:47:12 p.m.:904,,77,0,0.6446716,0.384644,0,0,0.5,0.5,-0.0936111956834793,-0.126168042421341,-0.0811369121074677,-0.0347769483923912,,
19/07/2022 6:47:12 p.m.:927,,77,0,0.6446716,0.384644,0,0,0.5,0.5,-0.0936111956834793,-0.126168042421341,-0.0811369121074677,-0.0347769483923912,,
19/07/2022 6:47:12 p.m.:950,,77,0,0.6446716,0.384644,0,0,0.5,0.5,-0.0936111956834793,-0.156999677419662,-0.5,-0.49846750497818,,
19/07/2022 6:47:12 p.m.:978,,77,0,0.6446716,0.384644,0,0,0.5,0.5,-0.111955888569355,-0.156999677419662,-0.5,-0.49846750497818,,
19/07/2022 6:47:13 p.m.:29,,77,0,0.6446716,0.384644,0,0,0.5,0.5,-0.111955888569355,-0.156999677419662,-0.5,-0.49846750497818,,
19/07/2022 6:47:13 p.m.:55,,77,0,0.639459,0.3900995,0,0,0.5,0.5,-0.111955888569355,-0.156999677419662,-0.5,-0.49846750497818,,
19/07/2022 6:47:13 p.m.:81,,77,0,0.639459,0.3900995,0,0,0.5,0.5,-0.111955888569355,-0.156999677419662,-0.5,-0.49846750497818,,
19/07/2022 6:47:13 p.m.:109,,77,0,0.639459,0.3900995,0,0,0.5,0.5,-0.111955888569355,-0.156999677419662,-0.5,-0.49846750497818,,
19/07/2022 6:47:13 p.m.:133,,77,0,0.6369675,0.3928058,0,0,0.5,0.5,-0.111955888569355,-0.156999677419662,-0.5,-0.49846750497818,,
19/07/2022 6:47:13 p.m.:184,,77,0,0.6369675,0.3928058,0,0,0.5,0.5,-0.111955888569355,-0.156999677419662,-0.5,-0.49846750497818,,
19/07/2022 6:47:13 p.m.:213,,77,0,0.6369675,0.3928058,0,0,0.5,0.5,-0.111955888569355,-0.0241530276834965,-0.5,-0.5,,
19/07/2022 6:47:13 p.m.:245,,77,0,0.6356918,0.3941914,0,0,0.5,0.229259610176086,-0.016428193077445,-0.0241530276834965,-0.5,-0.5,,
19/07/2022 6:47:13 p.m.:279,,77,0,0.6356918,0.3941914,0,0,0.5,0.229259610176086,-0.016428193077445,-0.0241530276834965,-0.5,-0.5,,
19/07/2022 6:47:13 p.m.:315,,77,0,0.6356918,0.3941914,0,0,0.5,0.229259610176086,-0.016428193077445,-0.0241530276834965,-0.5,-0.5,,
19/07/2022 6:47:13 p.m.:373,,77,0,0.6356918,0.3941914,0,0,0.5,0.229259610176086,-0.016428193077445,-0.0241530276834965,-0.5,-0.5,,
19/07/2022 6:47:13 p.m.:396,,77,0,0.6389233,0.3896395,0,0,0.5,0.229259610176086,-0.016428193077445,-0.0241530276834965,-0.5,-0.5,,
19/07/2022 6:47:13 p.m.:420,,77,0,0.6389233,0.3896395,0,0,0.5,0.229259610176086,-0.016428193077445,-0.0241530276834965,-0.5,-0.5,,
19/07/2022 6:47:13 p.m.:448,,77,0,0.6389233,0.3896395,0,0,0.5,0.229259610176086,-0.016428193077445,-0.0241530276834965,-0.5,-0.5,,
19/07/2022 6:47:13 p.m.:479,,77,0,0.6400174,0.3880984,0,0,0.5,0.229259610176086,-0.016428193077445,0.00667676376178861,-0.233684420585632,-0.117325752973557,,
19/07/2022 6:47:13 p.m.:537,,77,0,0.6400174,0.3880984,0,0,0.0926080420613289,-0.240181908011436,0.00476034032180905,0.00667676376178861,-0.233684420585632,-0.117325752973557,,
19/07/2022 6:47:13 p.m.:561,,77,0,0.6400174,0.3880984,0,0,0.0926080420613289,-0.240181908011436,0.00476034032180905,0.00667676376178861,-0.233684420585632,-0.117325752973557,,
19/07/2022 6:47:13 p.m.:584,,77,0,0.6429349,0.3850059,0,0,0.0926080420613289,-0.240181908011436,0.00476034032180905,0.00667676376178861,-0.233684420585632,-0.117325752973557,,
19/07/2022 6:47:13 p.m.:612,,77,0,0.6429349,0.3850059,0,0,0.0926080420613289,-0.240181908011436,0.00476034032180905,0.00667676376178861,-0.233684420585632,-0.117325752973557,,
19/07/2022 6:47:13 p.m.:644,,77,0,0.6429349,0.3850059,0,0,0.0926080420613289,-0.240181908011436,0.00476034032180905,0.00667676376178861,-0.233684420585632,-0.117325752973557,,
19/07/2022 6:47:13 p.m.:695,,77,0,0.6429349,0.3850059,0,0,0.0926080420613289,-0.240181908011436,0.00476034032180905,0.00667676376178861,-0.233684420585632,-0.117325752973557,,
19/07/2022 6:47:13 p.m.:720,,77,0,0.6457561,0.3820994,0,0,0.0926080420613289,-0.240181908011436,0.00476034032180905,0.00667676376178861,-0.233684420585632,-0.117325752973557,,
19/07/2022 6:47:13 p.m.:745,,77,0,0.6457561,0.3820994,0,0,0.0926080420613289,-0.240181908011436,0.00476034032180905,0.00356982229277492,0.5,0.5,,
19/07/2022 6:47:13 p.m.:779,,77,0,0.6457561,0.3820994,0,0,0.218038141727448,0.237602546811104,0.00232839654199779,0.00356982229277492,0.5,0.5,,
19/07/2022 6:47:13 p.m.:810,,77,0,0.6425673,0.3851843,0,0,0.218038141727448,0.237602546811104,0.00232839654199779,0.00356982229277492,0.5,0.5,,
19/07/2022 6:47:13 p.m.:857,,77,0,0.6425673,0.3851843,0,0,0.218038141727448,0.237602546811104,0.00232839654199779,0.00356982229277492,0.5,0.5,,
19/07/2022 6:47:13 p.m.:880,,77,0,0.6425673,0.3851843,0,0,0.218038141727448,0.237602546811104,0.00232839654199779,0.00356982229277492,0.5,0.5,,
19/07/2022 6:47:13 p.m.:912,,77,0,0.6349674,0.3926232,0,0,0.218038141727448,0.237602546811104,0.00232839654199779,0.00356982229277492,0.5,0.5,,
19/07/2022 6:47:13 p.m.:945,,77,0,0.6349674,0.3926232,0,0,0.218038141727448,0.237602546811104,0.00232839654199779,0.00356982229277492,0.5,0.5,,
19/07/2022 6:47:13 p.m.:979,,77,0,0.6349674,0.3926232,0,0,0.218038141727448,0.237602546811104,0.00232839654199779,-6.71995294396766E-05,0.5,0.5,,
19/07/2022 6:47:14 p.m.:32,,77,0,0.6349674,0.3926232,0,0,0.322365969419479,0.400091290473938,-0.000214052808587439,-6.71995294396766E-05,0.5,0.5,,
19/07/2022 6:47:14 p.m.:56,,77,0,0.6345263,0.3927238,0,0,0.322365969419479,0.400091290473938,-0.000214052808587439,-6.71995294396766E-05,0.5,0.5,,
19/07/2022 6:47:14 p.m.:79,,77,0,0.6345263,0.3927238,0,0,0.322365969419479,0.400091290473938,-0.000214052808587439,-6.71995294396766E-05,0.5,0.5,,
19/07/2022 6:47:14 p.m.:112,,77,0,0.6345263,0.3927238,0,0,0.322365969419479,0.400091290473938,-0.000214052808587439,-6.71995294396766E-05,0.5,0.5,,
19/07/2022 6:47:14 p.m.:144,,77,0,0.6345263,0.3927238,0,0,0.322365969419479,0.400091290473938,-0.000214052808587439,-6.71995294396766E-05,0.5,0.5,,
19/07/2022 6:47:14 p.m.:191,,77,0,0.642674,0.3839669,0,0,0.322365969419479,0.400091290473938,-0.000214052808587439,-6.71995294396766E-05,0.5,0.5,,
19/07/2022 6:47:14 p.m.:212,,77,0,0.642674,0.3839669,0,0,0.322365969419479,0.400091290473938,-0.000214052808587439,-0.00047677694237791,0.498597711324692,0.5,,
19/07/2022 6:47:14 p.m.:244,,77,0,0.642674,0.3839669,0,0,0.5,0.5,-0.00047677694237791,-0.00047677694237791,0.498597711324692,0.5,,
19/07/2022 6:47:14 p.m.:278,,77,0,0.633838,0.3925745,0,0,0.5,0.5,-0.00047677694237791,-0.00047677694237791,0.498597711324692,0.5,,
19/07/2022 6:47:14 p.m.:312,,77,0,0.633838,0.3925745,0,0,0.5,0.5,-0.00047677694237791,-0.00047677694237791,0.498597711324692,0.5,,
19/07/2022 6:47:14 p.m.:367,,77,0,0.633838,0.3925745,0,0,0.5,0.5,-0.00047677694237791,-0.00047677694237791,0.498597711324692,0.5,,
19/07/2022 6:47:14 p.m.:396,,77,0,0.633838,0.3925745,0,0,0.5,0.5,-0.00047677694237791,-0.00047677694237791,0.498597711324692,0.5,,
19/07/2022 6:47:14 p.m.:420,,77,0,0.6233771,0.4028844,0,0,0.5,0.5,-0.00047677694237791,-0.00047677694237791,0.498597711324692,0.5,,
19/07/2022 6:47:14 p.m.:445,,77,0,0.6233771,0.4028844,0,0,0.5,0.5,-0.00047677694237791,-0.00047677694237791,0.5,0.5,,
19/07/2022 6:47:14 p.m.:478,,77,0,0.6233771,0.4028844,0,0,0.5,0.5,-0.00047677694237791,-0.00047677694237791,0.5,0.5,,
19/07/2022 6:47:14 p.m.:535,,77,0,0.6233771,0.4028844,0,0,0.5,0.5,-0.00047677694237791,-0.00047677694237791,0.5,0.5,,
19/07/2022 6:47:14 p.m.:557,,77,0,0.5519348,0.4767999,0,0,0.5,0.5,-0.00047677694237791,-0.00047677694237791,0.5,0.5,,
19/07/2022 6:47:14 p.m.:578,,77,0,0.5519348,0.4767999,0,0,0.5,0.5,-0.00047677694237791,-0.00047677694237791,0.5,0.5,,
19/07/2022 6:47:14 p.m.:611,,77,0,0.5519348,0.4767999,0,0,0.5,0.5,-0.00047677694237791,-0.00047677694237791,0.5,0.5,,
19/07/2022 6:47:14 p.m.:645,,77,0,0.4922214,0.5386919,0,0,0.5,0.5,-0.00047677694237791,-0.00047677694237791,0.5,0.5,,
19/07/2022 6:47:14 p.m.:697,,77,0,0.4922214,0.5386919,0,0,0.5,0.5,-0.00047677694237791,0.5,0.5,0.5,,
19/07/2022 6:47:14 p.m.:723,,77,0,0.4922214,0.5386919,0,0,0.5,0.5,-0.00047677694237791,0.5,0.5,0.5,,
19/07/2022 6:47:14 p.m.:744,,77,0,0.3757338,0.649655,0,0,0.5,0.5,-0.00047677694237791,0.5,0.5,0.5,,
19/07/2022 6:47:14 p.m.:776,,77,0,0.3757338,0.649655,0,0,0.5,0.5,-0.00047677694237791,0.5,0.5,0.5,,
19/07/2022 6:47:14 p.m.:811,,77,0,0.3757338,0.649655,0,0,0.5,0.5,-0.00047677694237791,0.5,0.5,0.5,,
19/07/2022 6:47:14 p.m.:864,,77,0,0.3757338,0.649655,0,0,0.5,0.5,-0.00047677694237791,0.5,0.5,0.5,,
19/07/2022 6:47:14 p.m.:887,,77,0,0.1539006,0.8564987,0,0,0.5,0.5,-0.00047677694237791,-0.5,-0.5,-0.5,,
19/07/2022 6:47:14 p.m.:911,,77,0,0.1539006,0.8564987,0,0,-0.5,-0.5,-0.00047677694237791,-0.5,-0.5,-0.5,,
19/07/2022 6:47:14 p.m.:944,,77,0,0.1539006,0.8564987,0,0,-0.5,-0.5,-0.00047677694237791,-0.5,-0.5,-0.5,,
19/07/2022 6:47:14 p.m.:976,,77,0,0.08413052,0.9160274,0,0,-0.5,-0.5,-0.00047677694237791,-0.5,-0.5,-0.5,,
19/07/2022 6:47:15 p.m.:27,,77,0,0.08413052,0.9160274,0,0,-0.5,-0.5,-0.00047677694237791,-0.5,-0.5,-0.5,,
19/07/2022 6:47:15 p.m.:56,,77,0,0.08413052,0.9160274,0,0,-0.5,-0.5,-0.00047677694237791,-0.5,-0.5,-0.5,,
19/07/2022 6:47:15 p.m.:78,,77,0,0.05030458,0.9427728,0,0,-0.5,-0.5,-0.00047677694237791,-0.5,-0.5,-0.5,,
19/07/2022 6:47:15 p.m.:111,,77,0,0.05030458,0.9427728,0,0,-0.5,-0.5,-0.00047677694237791,-0.5,-0.5,-0.5,,
19/07/2022 6:47:15 p.m.:145,,77,0,0.05030458,0.9427728,0,0,-0.5,-0.5,-0.00047677694237791,-0.5,-0.5,-0.5,,
19/07/2022 6:47:15 p.m.:201,,77,0,0.05030458,0.9427728,0,0,-0.5,-0.5,-0.00047677694237791,-0.5,-0.5,-0.5,,
19/07/2022 6:47:15 p.m.:224,,77,0,0.07603984,0.907372,0,0,-0.5,-0.5,-0.00047677694237791,-0.5,-0.5,-0.5,,
19/07/2022 6:47:15 p.m.:248,,77,0,0.07603984,0.907372,0,0,-0.5,-0.5,-0.00047677694237791,-0.5,-0.5,-0.5,,
19/07/2022 6:47:15 p.m.:276,,77,0,0.07603984,0.907372,0,0,-0.5,-0.5,-0.00047677694237791,-0.5,-0.5,-0.5,,
19/07/2022 6:47:15 p.m.:309,,77,0,0.1094507,0.8678959,0,0,-0.5,-0.5,-0.00047677694237791,-0.5,-0.5,-0.5,,
19/07/2022 6:47:15 p.m.:360,,77,0,0.1094507,0.8678959,0,0,-0.5,-0.5,-0.00047677694237791,-0.5,-0.5,-0.486686050891876,,
19/07/2022 6:47:15 p.m.:385,,77,0,0.1094507,0.8678959,0,0,-0.5,-0.5,-0.00047677694237791,-0.5,-0.5,-0.486686050891876,,
19/07/2022 6:47:15 p.m.:411,,77,0,0.1313001,0.8416253,0,0,-0.5,-0.5,-0.00047677694237791,-0.5,-0.5,-0.486686050891876,,
19/07/2022 6:47:15 p.m.:444,,77,0,0.1313001,0.8416253,0,0,-0.5,-0.5,-0.00047677694237791,-0.5,-0.5,-0.486686050891876,,
19/07/2022 6:47:15 p.m.:476,,77,0,0.1313001,0.8416253,0,0,-0.5,-0.5,-0.00047677694237791,-0.5,-0.5,-0.486686050891876,,
19/07/2022 6:47:15 p.m.:520,,77,0,0.1313001,0.8416253,0,0,-0.5,-0.5,-0.00047677694237791,-0.5,-0.5,-0.486686050891876,,
19/07/2022 6:47:15 p.m.:551,,77,0,0.1530975,0.8147969,0,0,-0.5,-0.5,-0.00047677694237791,-0.5,-0.5,-0.486686050891876,,
19/07/2022 6:47:15 p.m.:578,,77,0,0.1530975,0.8147969,0,0,-0.5,-0.5,-0.00047677694237791,0.146411597728729,0.5,0.5,,
19/07/2022 6:47:15 p.m.:610,,77,0,0.1530975,0.8147969,0,0,0.5,0.5,-0.00047677694237791,0.146411597728729,0.5,0.5,,
19/07/2022 6:47:15 p.m.:644,,77,0,0.1725396,0.7896946,0,0,0.5,0.5,-0.00047677694237791,0.146411597728729,0.5,0.5,,
19/07/2022 6:47:15 p.m.:688,,77,0,0.1725396,0.7896946,0,0,0.5,0.5,-0.00047677694237791,0.146411597728729,0.5,0.5,,
19/07/2022 6:47:15 p.m.:716,,77,0,0.1725396,0.7896946,0,0,0.5,0.5,-0.00047677694237791,0.146411597728729,0.5,0.5,,
19/07/2022 6:47:15 p.m.:749,,77,0,0.199864,0.7537744,0,0,0.5,0.5,-0.00047677694237791,0.146411597728729,0.5,0.5,,
19/07/2022 6:47:15 p.m.:778,,77,0,0.199864,0.7537744,0,0,0.5,0.5,-0.00047677694237791,0.146411597728729,0.5,0.5,,
19/07/2022 6:47:15 p.m.:811,,77,0,0.199864,0.7537744,0,0,0.5,0.5,-0.00047677694237791,0.301020175218582,0.5,0.395769745111465,,
19/07/2022 6:47:15 p.m.:855,,77,0,0.199864,0.7537744,0,0,0.5,0.5,-0.00047677694237791,0.301020175218582,0.5,0.395769745111465,,
19/07/2022 6:47:15 p.m.:880,,77,0,0.2207594,0.7282118,0,0,0.5,0.5,-0.00047677694237791,0.301020175218582,0.5,0.395769745111465,,
19/07/2022 6:47:15 p.m.:917,,77,0,0.2207594,0.7282118,0,0,0.5,0.5,-0.00047677694237791,0.301020175218582,0.5,0.395769745111465,,
19/07/2022 6:47:15 p.m.:945,,77,0,0.2207594,0.7282118,0,0,0.5,0.5,-0.00047677694237791,0.301020175218582,0.5,0.395769745111465,,
19/07/2022 6:47:15 p.m.:977,,77,0,0.2207594,0.7282118,0,0,0.5,0.5,-0.00047677694237791,0.301020175218582,0.5,0.395769745111465,,
19/07/2022 6:47:16 p.m.:26,,77,0,0.237067,0.7112757,0,0,0.5,0.5,-0.00047677694237791,0.0858045369386673,0.012453380972147,0.00864190887659788,,
19/07/2022 6:47:16 p.m.:55,,77,0,0.237067,0.7112757,0,0,0.0174230597913265,0.0227582100778818,-0.00047677694237791,0.0858045369386673,0.012453380972147,0.00864190887659788,,
19/07/2022 6:47:16 p.m.:81,,77,0,0.237067,0.7112757,0,0,0.0174230597913265,0.0227582100778818,-0.00047677694237791,0.0858045369386673,0.012453380972147,0.00864190887659788,,
19/07/2022 6:47:16 p.m.:110,,77,0,0.2436744,0.7032464,0,0,0.0174230597913265,0.0227582100778818,-0.00047677694237791,0.0858045369386673,0.012453380972147,0.00864190887659788,,
19/07/2022 6:47:16 p.m.:145,,77,0,0.2436744,0.7032464,0,0,0.0174230597913265,0.0227582100778818,-0.00047677694237791,0.0858045369386673,0.012453380972147,0.00864190887659788,,
19/07/2022 6:47:16 p.m.:184,,77,0,0.2436744,0.7032464,0,0,0.0174230597913265,0.0227582100778818,-0.00047677694237791,0.0858045369386673,0.012453380972147,0.00864190887659788,,
19/07/2022 6:47:16 p.m.:220,,77,0,0.2436744,0.7032464,0,0,0.0174230597913265,0.0227582100778818,-0.00047677694237791,0.0858045369386673,0.012453380972147,0.00864190887659788,,
19/07/2022 6:47:16 p.m.:245,,77,0,0.2482346,0.6972853,0,0,0.0174230597913265,0.0227582100778818,-0.00047677694237791,-0.00714665837585926,-0.0737695321440697,-0.0498112924396992,,
19/07/2022 6:47:16 p.m.:276,,77,0,0.2482346,0.6972853,0,0,-0.0688388645648956,-0.0780140310525894,-0.00047677694237791,-0.00714665837585926,-0.0737695321440697,-0.0498112924396992,,
19/07/2022 6:47:16 p.m.:310,,77,0,0.2482346,0.6972853,0,0,-0.0688388645648956,-0.0780140310525894,-0.00047677694237791,-0.00714665837585926,-0.0737695321440697,-0.0498112924396992,,
19/07/2022 6:47:16 p.m.:367,,77,0,0.2482346,0.6972853,0,0,-0.0688388645648956,-0.0780140310525894,-0.00047677694237791,-0.00714665837585926,-0.0737695321440697,-0.0498112924396992,,
19/07/2022 6:47:16 p.m.:390,,77,0,0.2601535,0.6906334,0,0,-0.0688388645648956,-0.0780140310525894,-0.00047677694237791,-0.00714665837585926,-0.0737695321440697,-0.0498112924396992,,
19/07/2022 6:47:16 p.m.:412,,77,0,0.2601535,0.6906334,0,0,-0.0688388645648956,-0.0780140310525894,-0.00047677694237791,-0.00714665837585926,-0.0737695321440697,-0.0498112924396992,,
19/07/2022 6:47:16 p.m.:438,,77,0,0.2601535,0.6906334,0,0,-0.0688388645648956,-0.0780140310525894,-0.00047677694237791,-0.00714665837585926,-0.0737695321440697,-0.0498112924396992,,
19/07/2022 6:47:16 p.m.:461,,77,0,0.2641887,0.6883814,0,0,-0.0688388645648956,-0.0780140310525894,-0.00047677694237791,-0.0167890414595604,-0.0580222420394421,-0.0392678640782833,,
19/07/2022 6:47:16 p.m.:484,,77,0,0.2641887,0.6883814,0,0,-0.0550003051757813,-0.0626296103000641,-0.00047677694237791,-0.0167890414595604,-0.0580222420394421,-0.0392678640782833,,
19/07/2022 6:47:16 p.m.:534,,77,0,0.2641887,0.6883814,0,0,-0.0550003051757813,-0.0626296103000641,-0.00047677694237791,-0.0167890414595604,-0.0580222420394421,-0.0392678640782833,,
19/07/2022 6:47:16 p.m.:559,,77,0,0.2641887,0.6883814,0,0,-0.0550003051757813,-0.0626296103000641,-0.00047677694237791,-0.0167890414595604,-0.0580222420394421,-0.0392678640782833,,
19/07/2022 6:47:16 p.m.:580,,77,0,0.2669373,0.6897377,0,0,-0.0550003051757813,-0.0626296103000641,-0.00047677694237791,-0.0167890414595604,-0.0580222420394421,-0.0392678640782833,,
19/07/2022 6:47:16 p.m.:603,,77,0,0.2669373,0.6897377,0,0,-0.0550003051757813,-0.0626296103000641,-0.00047677694237791,-0.0167890414595604,-0.0580222420394421,-0.0392678640782833,,
19/07/2022 6:47:16 p.m.:625,,77,0,0.2669373,0.6897377,0,0,-0.0550003051757813,-0.0626296103000641,-0.00047677694237791,-0.0167890414595604,-0.0580222420394421,-0.0392678640782833,,
19/07/2022 6:47:16 p.m.:647,,77,0,0.2669373,0.6897377,0,0,-0.0550003051757813,-0.0626296103000641,-0.00047677694237791,-0.0167890414595604,-0.0580222420394421,-0.0392678640782833,,
19/07/2022 6:47:16 p.m.:703,,77,0,0.2669373,0.6897377,0,0,-0.0550003051757813,-0.0626296103000641,-0.00047677694237791,-0.0167890414595604,-0.0580222420394421,-0.0392678640782833,,
19/07/2022 6:47:16 p.m.:725,,77,0,0.2682789,0.6910276,0,0,-0.0550003051757813,-0.0626296103000641,-0.00047677694237791,-0.00506553892046213,-0.00166874844580889,-0.00128879258409142,,
19/07/2022 6:47:16 p.m.:747,,77,0,0.2682789,0.6910276,0,0,-0.00183419021777809,-0.00214991369284689,-0.00047677694237791,-0.00506553892046213,-0.00166874844580889,-0.00128879258409142,,
19/07/2022 6:47:16 p.m.:770,,77,0,0.2682789,0.6910276,0,0,-0.00183419021777809,-0.00214991369284689,-0.00047677694237791,-0.00506553892046213,-0.00166874844580889,-0.00128879258409142,,
19/07/2022 6:47:16 p.m.:798,,77,0,0.2682789,0.6910276,0,0,-0.00183419021777809,-0.00214991369284689,-0.00047677694237791,-0.00506553892046213,-0.00166874844580889,-0.00128879258409142,,
19/07/2022 6:47:16 p.m.:850,,77,0,0.2692192,0.6843947,0,0,-0.00183419021777809,-0.00214991369284689,-0.00047677694237791,-0.00506553892046213,-0.00166874844580889,-0.00128879258409142,,
19/07/2022 6:47:16 p.m.:871,,77,0,0.2692192,0.6843947,0,0,-0.00183419021777809,-0.00214991369284689,-0.00047677694237791,-0.00506553892046213,-0.00166874844580889,-0.00128879258409142,,
19/07/2022 6:47:16 p.m.:899,,77,0,0.2692192,0.6843947,0,0,-0.00183419021777809,-0.00214991369284689,-0.00047677694237791,-0.00506553892046213,-0.00166874844580889,-0.00128879258409142,,
19/07/2022 6:47:16 p.m.:923,,77,0,0.2695376,0.6821491,0,0,-0.00183419021777809,-0.00214991369284689,-0.00047677694237791,-0.000221074355067685,0.00319576938636601,0.00199549039825797,,
19/07/2022 6:47:16 p.m.:946,,77,0,0.2695376,0.6821491,0,0,0.0029888057615608,0.0034587976988405,-0.00047677694237791,-0.000221074355067685,0.00319576938636601,0.00199549039825797,,
19/07/2022 6:47:16 p.m.:971,,77,0,0.2695376,0.6821491,0,0,0.0029888057615608,0.0034587976988405,-0.00047677694237791,-0.000221074355067685,0.00319576938636601,0.00199549039825797,,
19/07/2022 6:47:17 p.m.:19,,77,0,0.2695376,0.6821491,0,0,0.0029888057615608,0.0034587976988405,-0.00047677694237791,-0.000221074355067685,0.00319576938636601,0.00199549039825797,,
19/07/2022 6:47:17 p.m.:46,,77,0,0.2695376,0.6821491,0,0,0.0029888057615608,0.0034587976988405,-0.00047677694237791,-0.000221074355067685,0.00319576938636601,0.00199549039825797,,
19/07/2022 6:47:17 p.m.:68,,77,0,0.2708245,0.687627,0,0,0.0029888057615608,0.0034587976988405,-0.00047677694237791,-0.000221074355067685,0.00319576938636601,0.00199549039825797,,
19/07/2022 6:47:17 p.m.:90,,77,0,0.2708245,0.687627,0,0,0.0029888057615608,0.0034587976988405,-0.00047677694237791,-0.000221074355067685,0.00319576938636601,0.00199549039825797,,
19/07/2022 6:47:17 p.m.:113,,77,0,0.2708245,0.687627,0,0,0.0029888057615608,0.0034587976988405,-0.00047677694237791,-0.000221074355067685,0.00319576938636601,0.00199549039825797,,
19/07/2022 6:47:17 p.m.:135,,77,0,0.2708245,0.687627,0,0,0.0029888057615608,0.0034587976988405,-0.00047677694237791,-0.000221074355067685,0.00319576938636601,0.00199549039825797,,
19/07/2022 6:47:17 p.m.:191,,77,0,0.2708245,0.687627,0,0,0.0029888057615608,0.0034587976988405,-0.00047677694237791,0.000238935128436424,0.00100837450008839,0.0005241310573183,,
19/07/2022 6:47:17 p.m.:216,,77,0,0.2713935,0.6904018,0,0,0.000986850471235812,0.00120782211888582,-0.00047677694237791,0.000238935128436424,0.00100837450008839,0.0005241310573183,,
19/07/2022 6:47:17 p.m.:238,,77,0,0.2713935,0.6904018,0,0,0.000986850471235812,0.00120782211888582,-0.00047677694237791,0.000238935128436424,0.00100837450008839,0.0005241310573183,,
19/07/2022 6:47:17 p.m.:265,,77,0,0.2713935,0.6904018,0,0,0.000986850471235812,0.00120782211888582,-0.00047677694237791,0.000238935128436424,0.00100837450008839,0.0005241310573183,,
19/07/2022 6:47:17 p.m.:288,,77,0,0.2678224,0.6889202,0,0,0.000986850471235812,0.00120782211888582,-0.00047677694237791,0.000238935128436424,0.00100837450008839,0.0005241310573183,,
19/07/2022 6:47:17 p.m.:338,,77,0,0.2678224,0.6889202,0,0,0.000986850471235812,0.00120782211888582,-0.00047677694237791,0.000238935128436424,0.00100837450008839,0.0005241310573183,,
19/07/2022 6:47:17 p.m.:365,,77,0,0.2678224,0.6889202,0,0,0.000986850471235812,0.00120782211888582,-0.00047677694237791,0.000238935128436424,0.00100837450008839,0.0005241310573183,,
19/07/2022 6:47:17 p.m.:390,,77,0,0.265994,0.6881617,0,0,0.000986850471235812,0.00120782211888582,-0.00047677694237791,0.000238935128436424,0.00100837450008839,0.0005241310573183,,
19/07/2022 6:47:17 p.m.:413,,77,0,0.265994,0.6881617,0,0,0.000986850471235812,0.00120782211888582,-0.00047677694237791,-0.000280289445072412,-0.000332667928887531,-0.000378796161385253,,
19/07/2022 6:47:17 p.m.:437,,77,0,0.265994,0.6881617,0,0,-0.000319160899380222,-0.000288496405119076,-0.00047677694237791,-0.000280289445072412,-0.000332667928887531,-0.000378796161385253,,
19/07/2022 6:47:17 p.m.:460,,77,0,0.265994,0.6881617,0,0,-0.000319160899380222,-0.000288496405119076,-0.00047677694237791,-0.000280289445072412,-0.000332667928887531,-0.000378796161385253,,
19/07/2022 6:47:17 p.m.:514,,77,0,0.265994,0.6881617,0,0,-0.000319160899380222,-0.000288496405119076,-0.00047677694237791,-0.000280289445072412,-0.000332667928887531,-0.000378796161385253,,
19/07/2022 6:47:17 p.m.:536,,77,0,0.2640333,0.6951745,0,0,-0.000319160899380222,-0.000288496405119076,-0.00047677694237791,-0.000280289445072412,-0.000332667928887531,-0.000378796161385253,,
19/07/2022 6:47:17 p.m.:559,,77,0,0.2640333,0.6951745,0,0,-0.000319160899380222,-0.000288496405119076,-0.00047677694237791,-0.000280289445072412,-0.000332667928887531,-0.000378796161385253,,
19/07/2022 6:47:17 p.m.:585,,77,0,0.2640333,0.6951745,0,0,-0.000319160899380222,-0.000288496405119076,-0.00047677694237791,-0.000280289445072412,-0.000332667928887531,-0.000378796161385253,,
19/07/2022 6:47:17 p.m.:610,,77,0,0.2640333,0.6951745,0,0,-0.000319160899380222,-0.000288496405119076,-0.00047677694237791,-0.000280289445072412,-0.000332667928887531,-0.000378796161385253,,
19/07/2022 6:47:17 p.m.:653,,77,0,0.2633874,0.6981121,0,0,-0.000319160899380222,-0.000288496405119076,-0.00047677694237791,-0.000280289445072412,-0.000332667928887531,-0.000378796161385253,,
19/07/2022 6:47:17 p.m.:689,,77,0,0.2633874,0.6981121,0,0,-0.000319160899380222,-0.000288496405119076,-0.00047677694237791,-0.00047677694237791,-0.00047677694237791,-0.00047677694237791,,
19/07/2022 6:47:17 p.m.:717,,77,0,0.2633874,0.6981121,0,0,-0.00047677694237791,-0.00047677694237791,-0.00047677694237791,-0.00047677694237791,-0.00047677694237791,-0.00047677694237791,,
19/07/2022 6:47:17 p.m.:737,,77,0,0.2603559,0.6978273,0,0,-0.00047677694237791,-0.00047677694237791,-0.00047677694237791,-0.00047677694237791,-0.00047677694237791,-0.00047677694237791,,
19/07/2022 6:47:17 p.m.:759,,77,0,0.2603559,0.6978273,0,0,-0.00047677694237791,-0.00047677694237791,-0.00047677694237791,-0.00047677694237791,-0.00047677694237791,-0.00047677694237791,,
19/07/2022 6:47:17 p.m.:780,,77,0,0.2603559,0.6978273,0,0,-0.00047677694237791,-0.00047677694237791,-0.00047677694237791,-0.00047677694237791,-0.00047677694237791,-0.00047677694237791,,
19/07/2022 6:47:17 p.m.:824,,77,0,0.2603559,0.6978273,0,0,-0.00047677694237791,-0.00047677694237791,-0.00047677694237791,-0.00047677694237791,-0.00047677694237791,-0.00047677694237791,,
19/07/2022 6:47:17 p.m.:855,,77,0,0.2603559,0.6978273,0,0,-0.00047677694237791,-0.00047677694237791,-0.00047677694237791,-0.00047677694237791,-0.00047677694237791,-0.00047677694237791,,
19/07/2022 6:47:17 p.m.:876,,77,0,0.2568398,0.6969998,0,0,-0.00047677694237791,-0.00047677694237791,-0.00047677694237791,-0.00047677694237791,-0.00047677694237791,-0.00047677694237791,,
19/07/2022 6:47:17 p.m.:900,,77,0,0.2568398,0.6969998,0,0,-0.00047677694237791,-0.00047677694237791,-0.00047677694237791,-0.00047677694237791,-0.00047677694237791,-0.00047677694237791,,
19/07/2022 6:47:17 p.m.:921,,77,0,0.2568398,0.6969998,0,0,-0.00047677694237791,-0.00047677694237791,-0.00047677694237791,-0.00047677694237791,-0.00047677694237791,-0.00047677694237791,,
19/07/2022 6:47:17 p.m.:947,,77,0,0.2568398,0.6969998,0,0,-0.00047677694237791,-0.00047677694237791,-0.00047677694237791,-0.00047677694237791,-0.00047677694237791,-0.00047677694237791,,
19/07/2022 6:47:17 p.m.:994,,77,0,0.2550643,0.7030711,0,0,-0.00047677694237791,-0.00047677694237791,-0.00047677694237791,-0.00047677694237791,-0.00047677694237791,-0.00047677694237791,,
19/07/2022 6:47:18 p.m.:16,,77,0,0.2550643,0.7030711,0,0,-0.00047677694237791,-0.00047677694237791,-0.00047677694237791,-0.00047677694237791,-0.00047677694237791,-0.00047677694237791,,
19/07/2022 6:47:18 p.m.:35,,77,0,0.2550643,0.7030711,0,0,-0.00047677694237791,-0.00047677694237791,-0.00047677694237791,-0.00047677694237791,-0.00047677694237791,-0.00047677694237791,,
19/07/2022 6:47:18 p.m.:62,,77,0,0.2550643,0.7030711,0,0,-0.00047677694237791,-0.00047677694237791,-0.00047677694237791,-0.00047677694237791,-0.00047677694237791,-0.00047677694237791,,
19/07/2022 6:47:18 p.m.:85,,77,0,0.2541769,0.7068818,0,0,-0.00047677694237791,-0.00047677694237791,-0.00047677694237791,-0.5,-0.00047677694237791,-0.00047677694237791,,
19/07/2022 6:47:18 p.m.:112,,77,0,0.2541769,0.7068818,0,0,-0.00047677694237791,-0.00047677694237791,-0.00047677694237791,-0.5,-0.00047677694237791,-0.00047677694237791,,
19/07/2022 6:47:18 p.m.:157,,77,0,0.2541769,0.7068818,0,0,-0.00047677694237791,-0.00047677694237791,-0.00047677694237791,-0.5,-0.00047677694237791,-0.00047677694237791,,
19/07/2022 6:47:18 p.m.:183,,77,0,0.2541769,0.7068818,0,0,-0.00047677694237791,-0.00047677694237791,-0.00047677694237791,-0.5,-0.00047677694237791,-0.00047677694237791,,
19/07/2022 6:47:18 p.m.:208,,77,0,0.2497009,0.7071983,0,0,-0.00047677694237791,-0.00047677694237791,-0.00047677694237791,-0.5,-0.00047677694237791,-0.00047677694237791,,
19/07/2022 6:47:18 p.m.:242,,77,0,0.2497009,0.7071983,0,0,-0.00047677694237791,-0.00047677694237791,-0.00047677694237791,-0.5,-0.00047677694237791,-0.00047677694237791,,
19/07/2022 6:47:18 p.m.:277,,77,0,0.2497009,0.7071983,0,0,-0.00047677694237791,-0.00047677694237791,-0.00047677694237791,-0.5,-0.00047677694237791,-0.00047677694237791,,
19/07/2022 6:47:18 p.m.:321,,77,0,0.2497009,0.7071983,0,0,-0.00047677694237791,-0.00047677694237791,-0.00047677694237791,-0.5,-0.00047677694237791,-0.00047677694237791,,
19/07/2022 6:47:18 p.m.:342,,77,0,0.2461194,0.7080934,0,0,-0.00047677694237791,-0.00047677694237791,-0.00047677694237791,-0.5,-0.00047677694237791,-0.00047677694237791,,
19/07/2022 6:47:18 p.m.:376,,77,0,0.2461194,0.7080934,0,0,-0.00047677694237791,-0.00047677694237791,-0.00047677694237791,-0.5,-0.00047677694237791,-0.00047677694237791,,
19/07/2022 6:47:18 p.m.:408,,77,0,0.2461194,0.7080934,0,0,-0.00047677694237791,-0.00047677694237791,-0.00047677694237791,-0.5,-0.00047677694237791,-0.00047677694237791,,
19/07/2022 6:47:18 p.m.:449,,77,0,0.2461194,0.7080934,0,0,-0.00047677694237791,-0.00047677694237791,-0.00047677694237791,-0.5,-0.00047677694237791,-0.00047677694237791,,
19/07/2022 6:47:18 p.m.:488,,77,0,0.2429246,0.7104639,0,0,-0.00047677694237791,-0.00047677694237791,-0.00047677694237791,0.5,-0.00047677694237791,-0.00047677694237791,,
19/07/2022 6:47:18 p.m.:510,,77,0,0.2429246,0.7104639,0,0,-0.00047677694237791,-0.00047677694237791,-0.00047677694237791,0.5,-0.00047677694237791,-0.00047677694237791,,
19/07/2022 6:47:18 p.m.:544,,77,0,0.2429246,0.7104639,0,0,-0.00047677694237791,-0.00047677694237791,-0.00047677694237791,0.5,-0.00047677694237791,-0.00047677694237791,,
19/07/2022 6:47:18 p.m.:577,,77,0,0.2398838,0.7159709,0,0,-0.00047677694237791,-0.00047677694237791,-0.00047677694237791,0.5,-0.00047677694237791,-0.00047677694237791,,
19/07/2022 6:47:18 p.m.:616,,77,0,0.2398838,0.7159709,0,0,-0.00047677694237791,-0.00047677694237791,-0.00047677694237791,0.5,-0.00047677694237791,-0.00047677694237791,,
19/07/2022 6:47:18 p.m.:656,,77,0,0.2398838,0.7159709,0,0,-0.00047677694237791,-0.00047677694237791,-0.00047677694237791,0.5,-0.00047677694237791,-0.00047677694237791,,
19/07/2022 6:47:18 p.m.:681,,77,0,0.2398838,0.7159709,0,0,-0.00047677694237791,-0.00047677694237791,-0.00047677694237791,0.5,-0.00047677694237791,-0.00047677694237791,,
19/07/2022 6:47:18 p.m.:709,,77,0,0.2371574,0.7214058,0,0,-0.00047677694237791,-0.00047677694237791,-0.00047677694237791,0.5,-0.00047677694237791,-0.00047677694237791,,
19/07/2022 6:47:18 p.m.:743,,77,0,0.2371574,0.7214058,0,0,-0.00047677694237791,-0.00047677694237791,-0.00047677694237791,0.5,-0.00047677694237791,-0.00047677694237791,,
19/07/2022 6:47:18 p.m.:776,,77,0,0.2371574,0.7214058,0,0,-0.00047677694237791,-0.00047677694237791,-0.00047677694237791,0.5,-0.00047677694237791,-0.00047677694237791,,
19/07/2022 6:47:18 p.m.:819,,77,0,0.2371574,0.7214058,0,0,-0.00047677694237791,-0.00047677694237791,-0.00047677694237791,0.5,-0.00047677694237791,-0.00047677694237791,,
19/07/2022 6:47:18 p.m.:842,,77,0,0.2299194,0.7247894,0,0,-0.00047677694237791,-0.00047677694237791,-0.00047677694237791,0.5,-0.00047677694237791,-0.00047677694237791,,
19/07/2022 6:47:18 p.m.:876,,77,0,0.2299194,0.7247894,0,0,-0.00047677694237791,-0.00047677694237791,-0.00047677694237791,0.5,-0.00047677694237791,-0.00047677694237791,,
19/07/2022 6:47:18 p.m.:912,,77,0,0.2299194,0.7247894,0,0,-0.00047677694237791,-0.00047677694237791,-0.00047677694237791,0.5,-0.5,-0.00047677694237791,,
19/07/2022 6:47:18 p.m.:946,,77,0,0.2299194,0.7247894,0,0,-0.00047677694237791,-0.00047677694237791,-0.00047677694237791,0.5,-0.5,-0.00047677694237791,,
19/07/2022 6:47:18 p.m.:989,,77,0,0.2247818,0.7289939,0,0,-0.00047677694237791,-0.00047677694237791,-0.00047677694237791,0.5,-0.5,-0.00047677694237791,,
19/07/2022 6:47:19 p.m.:9,,77,0,0.2247818,0.7289939,0,0,-0.00047677694237791,-0.00047677694237791,-0.00047677694237791,0.5,-0.5,-0.00047677694237791,,
19/07/2022 6:47:19 p.m.:43,,77,0,0.2247818,0.7289939,0,0,-0.00047677694237791,-0.00047677694237791,-0.00047677694237791,0.5,-0.5,-0.00047677694237791,,
19/07/2022 6:47:19 p.m.:77,,77,0,0.2216091,0.7345731,0,0,-0.00047677694237791,-0.00047677694237791,-0.00047677694237791,0.5,-0.5,-0.00047677694237791,,
19/07/2022 6:47:19 p.m.:109,,77,0,0.2216091,0.7345731,0,0,-0.00047677694237791,-0.00047677694237791,-0.00047677694237791,0.110279925167561,-0.5,-0.00047677694237791,,
19/07/2022 6:47:19 p.m.:147,,77,0,0.2216091,0.7345731,0,0,-0.00047677694237791,-0.00047677694237791,-0.5,0.110279925167561,-0.5,-0.00047677694237791,,
19/07/2022 6:47:19 p.m.:176,,77,0,0.2216091,0.7345731,0,0,-0.00047677694237791,-0.00047677694237791,-0.5,0.110279925167561,-0.5,-0.00047677694237791,,
19/07/2022 6:47:19 p.m.:210,,77,0,0.2084462,0.7506776,0,0,-0.00047677694237791,-0.00047677694237791,-0.5,0.110279925167561,-0.5,-0.00047677694237791,,
19/07/2022 6:47:19 p.m.:248,,77,0,0.2084462,0.7506776,0,0,-0.00047677694237791,-0.00047677694237791,-0.5,0.110279925167561,-0.5,-0.00047677694237791,,
19/07/2022 6:47:19 p.m.:269,,77,0,0.2084462,0.7506776,0,0,-0.00047677694237791,-0.00047677694237791,-0.5,0.110279925167561,-0.5,-0.00047677694237791,,
19/07/2022 6:47:19 p.m.:312,,77,0,0.2084462,0.7506776,0,0,-0.00047677694237791,-0.00047677694237791,-0.5,0.203281074762344,-0.5,-0.00047677694237791,,
19/07/2022 6:47:19 p.m.:335,,77,0,0.1958883,0.765369,0,0,-0.00047677694237791,-0.00047677694237791,-0.5,0.203281074762344,-0.5,-0.00047677694237791,,
19/07/2022 6:47:19 p.m.:355,,77,0,0.1958883,0.765369,0,0,-0.00047677694237791,-0.00047677694237791,-0.5,0.203281074762344,-0.5,-0.00047677694237791,,
19/07/2022 6:47:19 p.m.:385,,77,0,0.1958883,0.765369,0,0,-0.00047677694237791,-0.00047677694237791,-0.5,0.203281074762344,-0.5,-0.00047677694237791,,
19/07/2022 6:47:19 p.m.:411,,77,0,0.1958883,0.765369,0,0,-0.00047677694237791,-0.00047677694237791,-0.5,0.203281074762344,-0.5,-0.00047677694237791,,
19/07/2022 6:47:19 p.m.:434,,77,0,0.1834157,0.7833972,0,0,-0.00047677694237791,-0.00047677694237791,-0.5,0.203281074762344,-0.5,-0.00047677694237791,,
19/07/2022 6:47:19 p.m.:469,,77,0,0.1834157,0.7833972,0,0,-0.00047677694237791,-0.00047677694237791,-0.5,0.203281074762344,-0.5,-0.00047677694237791,,
19/07/2022 6:47:19 p.m.:491,,77,0,0.1834157,0.7833972,0,0,-0.00047677694237791,-0.00047677694237791,-0.5,0.5,0.5,-0.00047677694237791,,
19/07/2022 6:47:19 p.m.:528,,77,0,0.1834157,0.7833972,0,0,-0.00047677694237791,-0.00047677694237791,0.138034656643867,0.5,0.5,-0.00047677694237791,,
19/07/2022 6:47:19 p.m.:550,,77,0,0.1767395,0.7972239,0,0,-0.00047677694237791,-0.00047677694237791,0.138034656643867,0.5,0.5,-0.00047677694237791,,
19/07/2022 6:47:19 p.m.:572,,77,0,0.1767395,0.7972239,0,0,-0.00047677694237791,-0.00047677694237791,0.138034656643867,0.5,0.5,-0.00047677694237791,,
19/07/2022 6:47:19 p.m.:592,,77,0,0.1767395,0.7972239,0,0,-0.00047677694237791,-0.00047677694237791,0.138034656643867,0.5,0.5,-0.00047677694237791,,
19/07/2022 6:47:19 p.m.:633,,77,0,0.1767395,0.7972239,0,0,-0.00047677694237791,-0.00047677694237791,0.138034656643867,0.5,0.5,-0.00047677694237791,,
19/07/2022 6:47:19 p.m.:658,,77,0,0.1709455,0.8154628,0,0,-0.00047677694237791,-0.00047677694237791,0.138034656643867,0.5,0.5,-0.00047677694237791,,
19/07/2022 6:47:19 p.m.:685,,77,0,0.1709455,0.8154628,0,0,-0.00047677694237791,-0.00047677694237791,0.138034656643867,0.5,0.5,-0.00047677694237791,,
19/07/2022 6:47:19 p.m.:707,,77,0,0.1709455,0.8154628,0,0,-0.00047677694237791,-0.00047677694237791,0.138034656643867,0.5,0.5,-0.00047677694237791,,
19/07/2022 6:47:19 p.m.:733,,77,0,0.1709455,0.8154628,0,0,-0.00047677694237791,-0.00047677694237791,0.5,0.5,0.5,-0.00047677694237791,,
19/07/2022 6:47:19 p.m.:756,,77,0,0.164594,0.8223033,0,0,-0.00047677694237791,-0.00047677694237791,0.5,0.5,0.5,-0.00047677694237791,,
19/07/2022 6:47:19 p.m.:793,,77,0,0.164594,0.8223033,0,0,-0.00047677694237791,-0.00047677694237791,0.5,0.5,0.5,-0.00047677694237791,,
19/07/2022 6:47:19 p.m.:823,,77,0,0.164594,0.8223033,0,0,-0.00047677694237791,-0.00047677694237791,0.5,0.5,0.5,-0.00047677694237791,,
19/07/2022 6:47:19 p.m.:850,,77,0,0.164594,0.8223033,0,0,-0.00047677694237791,-0.00047677694237791,0.5,0.5,0.5,-0.00047677694237791,,
19/07/2022 6:47:19 p.m.:874,,77,0,0.1594462,0.8247019,0,0,-0.00047677694237791,-0.00047677694237791,0.5,0.5,0.5,-0.00047677694237791,,
19/07/2022 6:47:19 p.m.:897,,77,0,0.1594462,0.8247019,0,0,-0.00047677694237791,-0.00047677694237791,0.5,0.5,0.5,-0.00047677694237791,,
19/07/2022 6:47:19 p.m.:920,,77,0,0.1594462,0.8247019,0,0,-0.00047677694237791,-0.00047677694237791,0.5,0.5,0.5,-0.00047677694237791,,
19/07/2022 6:47:19 p.m.:973,,77,0,0.1594462,0.8247019,0,0,-0.00047677694237791,-0.00047677694237791,0.5,0.5,0.5,-0.00047677694237791,,
19/07/2022 6:47:19 p.m.:993,,77,0,0.145316,0.8444909,0,0,-0.00047677694237791,-0.00047677694237791,0.5,0.5,0.5,-0.00047677694237791,,
19/07/2022 6:47:20 p.m.:14,,77,0,0.145316,0.8444909,0,0,-0.00047677694237791,-0.00047677694237791,0.5,0.5,0.5,-0.00047677694237791,,
19/07/2022 6:47:20 p.m.:34,,77,0,0.145316,0.8444909,0,0,-0.00047677694237791,-0.00047677694237791,0.5,0.5,0.5,-0.00047677694237791,,
19/07/2022 6:47:20 p.m.:59,,77,0,0.145316,0.8444909,0,0,-0.00047677694237791,-0.00047677694237791,0.5,0.5,0.5,-0.00047677694237791,,
19/07/2022 6:47:20 p.m.:83,,77,0,0.1318344,0.8646327,0,0,-0.00047677694237791,-0.00047677694237791,0.5,0.5,0.5,-0.00047677694237791,,
19/07/2022 6:47:20 p.m.:134,,77,0,0.1318344,0.8646327,0,0,-0.00047677694237791,-0.00047677694237791,0.5,0.5,0.359990507364273,-0.00047677694237791,,
19/07/2022 6:47:20 p.m.:156,,77,0,0.1318344,0.8646327,0,0,-0.00047677694237791,-0.00047677694237791,0.5,0.5,0.359990507364273,-0.00047677694237791,,
19/07/2022 6:47:20 p.m.:178,,77,0,0.1318344,0.8646327,0,0,-0.00047677694237791,-0.00047677694237791,0.5,0.5,0.359990507364273,-0.00047677694237791,,
19/07/2022 6:47:20 p.m.:199,,77,0,0.1178771,0.8928717,0,0,-0.00047677694237791,-0.00047677694237791,0.5,0.5,0.359990507364273,-0.00047677694237791,,
19/07/2022 6:47:20 p.m.:220,,77,0,0.1178771,0.8928717,0,0,-0.00047677694237791,-0.00047677694237791,0.5,0.5,0.359990507364273,-0.00047677694237791,,
19/07/2022 6:47:20 p.m.:241,,77,0,0.1178771,0.8928717,0,0,-0.00047677694237791,-0.00047677694237791,0.5,0.5,0.359990507364273,-0.00047677694237791,,
19/07/2022 6:47:20 p.m.:285,,77,0,0.1178771,0.8928717,0,0,-0.00047677694237791,-0.00047677694237791,0.5,0.5,0.359990507364273,-0.00047677694237791,,
19/07/2022 6:47:20 p.m.:312,,77,0,0.1178771,0.8928717,0,0,-0.00047677694237791,-0.00047677694237791,0.5,0.5,0.408819675445557,-0.00047677694237791,,
19/07/2022 6:47:20 p.m.:334,,77,0,0.09939661,0.9244085,0,0,-0.00047677694237791,-0.00047677694237791,0.5,0.5,0.408819675445557,-0.00047677694237791,,
19/07/2022 6:47:20 p.m.:357,,77,0,0.09939661,0.9244085,0,0,-0.00047677694237791,-0.00047677694237791,0.5,0.5,0.408819675445557,-0.00047677694237791,,
19/07/2022 6:47:20 p.m.:377,,77,0,0.09939661,0.9244085,0,0,-0.00047677694237791,-0.00047677694237791,0.5,0.5,0.408819675445557,-0.00047677694237791,,
19/07/2022 6:47:20 p.m.:399,,77,0,0.09939661,0.9244085,0,0,-0.00047677694237791,-0.00047677694237791,0.5,0.5,0.408819675445557,-0.00047677694237791,,
19/07/2022 6:47:20 p.m.:450,,77,0,0.09939661,0.9244085,0,0,-0.00047677694237791,-0.00047677694237791,0.5,0.5,0.408819675445557,-0.00047677694237791,,
19/07/2022 6:47:20 p.m.:472,,77,0,0.07959018,0.9437098,0,0,-0.00047677694237791,-0.00047677694237791,0.5,0.5,0.408819675445557,-0.00047677694237791,,
19/07/2022 6:47:20 p.m.:495,,77,0,0.07959018,0.9437098,0,0,-0.00047677694237791,-0.00047677694237791,0.5,0.5,0.408819675445557,-0.00047677694237791,,
19/07/2022 6:47:20 p.m.:522,,77,0,0.07959018,0.9437098,0,0,-0.00047677694237791,-0.00047677694237791,0.5,-0.457372903823853,-0.377382725477219,-0.5,,
19/07/2022 6:47:20 p.m.:549,,77,0,0.07959018,0.9437098,0,0,-0.5,-0.00047677694237791,-0.367910325527191,-0.457372903823853,-0.377382725477219,-0.5,,
19/07/2022 6:47:20 p.m.:599,,77,0,0.06629671,0.9513093,0,0,-0.5,-0.00047677694237791,-0.367910325527191,-0.457372903823853,-0.377382725477219,-0.5,,
19/07/2022 6:47:20 p.m.:622,,77,0,0.06629671,0.9513093,0,0,-0.5,-0.00047677694237791,-0.367910325527191,-0.457372903823853,-0.377382725477219,-0.5,,
19/07/2022 6:47:20 p.m.:647,,77,0,0.06629671,0.9513093,0,0,-0.5,-0.00047677694237791,-0.367910325527191,-0.457372903823853,-0.377382725477219,-0.5,,
19/07/2022 6:47:20 p.m.:668,,77,0,0.04954347,0.9571826,0,0,-0.5,-0.00047677694237791,-0.367910325527191,-0.457372903823853,-0.377382725477219,-0.5,,
19/07/2022 6:47:20 p.m.:689,,77,0,0.04954347,0.9571826,0,0,-0.5,-0.00047677694237791,-0.367910325527191,-0.457372903823853,-0.377382725477219,-0.5,,
19/07/2022 6:47:20 p.m.:711,,77,0,0.04954347,0.9571826,0,0,-0.5,-0.00047677694237791,-0.367910325527191,-0.457372903823853,-0.377382725477219,-0.5,,
19/07/2022 6:47:20 p.m.:764,,77,0,0.04954347,0.9571826,0,0,-0.5,-0.00047677694237791,-0.367910325527191,0.162465810775757,0.0804140791296959,-0.5,,
19/07/2022 6:47:20 p.m.:788,,77,0,0.04954347,0.9571826,0,0,-0.5,-0.00047677694237791,0.0671401843428612,0.162465810775757,0.0804140791296959,-0.5,,
19/07/2022 6:47:20 p.m.:809,,77,0,0.1489517,0.8675181,0,0,-0.5,-0.00047677694237791,0.0671401843428612,0.162465810775757,0.0804140791296959,-0.5,,
19/07/2022 6:47:20 p.m.:830,,77,0,0.1489517,0.8675181,0,0,-0.5,-0.00047677694237791,0.0671401843428612,0.162465810775757,0.0804140791296959,-0.5,,
19/07/2022 6:47:20 p.m.:852,,77,0,0.1489517,0.8675181,0,0,-0.5,-0.00047677694237791,0.0671401843428612,0.162465810775757,0.0804140791296959,-0.5,,
19/07/2022 6:47:20 p.m.:875,,77,0,0.1489517,0.8675181,0,0,-0.5,-0.00047677694237791,0.0671401843428612,0.162465810775757,0.0804140791296959,-0.5,,
19/07/2022 6:47:20 p.m.:927,,77,0,0.1489517,0.8675181,0,0,-0.5,-0.00047677694237791,0.0671401843428612,0.5,0.5,-0.245536431670189,,
19/07/2022 6:47:20 p.m.:950,,77,0,0.4441965,0.6166009,0,0,-0.333291530609131,-0.00047677694237791,0.5,0.5,0.5,-0.245536431670189,,
19/07/2022 6:47:20 p.m.:971,,77,0,0.4441965,0.6166009,0,0,-0.333291530609131,-0.00047677694237791,0.5,0.5,0.5,-0.245536431670189,,
19/07/2022 6:47:20 p.m.:992,,77,0,0.4441965,0.6166009,0,0,-0.333291530609131,-0.00047677694237791,0.5,0.5,0.5,-0.245536431670189,,
19/07/2022 6:47:21 p.m.:19,,77,0,0.4441965,0.6166009,0,0,-0.333291530609131,-0.00047677694237791,0.5,0.5,0.5,-0.245536431670189,,
19/07/2022 6:47:21 p.m.:45,,77,0,0.605472,0.4569883,0,0,-0.333291530609131,-0.00047677694237791,0.5,0.5,0.5,-0.245536431670189,,
19/07/2022 6:47:21 p.m.:83,,77,0,0.605472,0.4569883,0,0,-0.333291530609131,-0.00047677694237791,0.5,0.5,0.5,-0.245536431670189,,
19/07/2022 6:47:21 p.m.:103,,77,0,0.605472,0.4569883,0,0,-0.333291530609131,-0.00047677694237791,0.5,0.5,0.5,-0.245536431670189,,
19/07/2022 6:47:21 p.m.:129,,77,0,0.605472,0.4569883,0,0,-0.333291530609131,-0.00047677694237791,0.5,0.5,0.5,-0.245536431670189,,
19/07/2022 6:47:21 p.m.:156,,77,0,0.6715304,0.391611,0,0,-0.333291530609131,-0.00047677694237791,0.5,0.5,0.5,-0.245536431670189,,
19/07/2022 6:47:21 p.m.:181,,77,0,0.6715304,0.391611,0,0,-0.333291530609131,-0.00047677694237791,0.5,0.5,0.5,-0.245536431670189,,
19/07/2022 6:47:21 p.m.:201,,77,0,0.6715304,0.391611,0,0,-0.333291530609131,-0.00047677694237791,0.5,0.5,0.5,-0.245536431670189,,
19/07/2022 6:47:21 p.m.:237,,77,0,0.6715304,0.391611,0,0,-0.333291530609131,-0.00047677694237791,0.5,0.5,0.5,-0.245536431670189,,
19/07/2022 6:47:21 p.m.:261,,77,0,0.6715304,0.391611,0,0,-0.333291530609131,-0.00047677694237791,0.5,0.5,0.5,-0.245536431670189,,
19/07/2022 6:47:21 p.m.:288,,77,0,0.7023423,0.3611169,0,0,-0.333291530609131,-0.00047677694237791,0.5,0.5,0.5,-0.245536431670189,,
19/07/2022 6:47:21 p.m.:308,,77,0,0.7023423,0.3611169,0,0,-0.333291530609131,-0.00047677694237791,0.5,0.5,0.5,-0.245536431670189,,
19/07/2022 6:47:21 p.m.:338,,77,0,0.7023423,0.3611169,0,0,-0.333291530609131,-0.00047677694237791,0.5,0.5,0.5,-0.245536431670189,,
19/07/2022 6:47:21 p.m.:359,,77,0,0.7023423,0.3611169,0,0,-0.333291530609131,-0.00047677694237791,0.5,0.5,0.5,-0.245536431670189,,
19/07/2022 6:47:21 p.m.:399,,77,0,0.7023423,0.3611169,0,0,-0.333291530609131,-0.00047677694237791,0.5,0.5,0.5,-0.245536431670189,,
19/07/2022 6:47:21 p.m.:421,,77,0,0.7124388,0.3511246,0,0,-0.333291530609131,-0.00047677694237791,0.5,0.5,0.5,-0.245536431670189,,
19/07/2022 6:47:21 p.m.:442,,77,0,0.7124388,0.3511246,0,0,-0.333291530609131,-0.00047677694237791,0.5,0.5,0.5,-0.245536431670189,,
19/07/2022 6:47:21 p.m.:471,,77,0,0.7124388,0.3511246,0,0,-0.333291530609131,-0.00047677694237791,0.5,0.5,0.5,-0.245536431670189,,
19/07/2022 6:47:21 p.m.:498,,77,0,0.7124388,0.3511246,0,0,-0.333291530609131,-0.00047677694237791,0.5,0.5,0.5,-0.245536431670189,,
19/07/2022 6:47:21 p.m.:521,,77,0,0.715344,0.3482492,0,0,-0.333291530609131,-0.00047677694237791,0.5,0.5,0.5,-0.245536431670189,,
19/07/2022 6:47:21 p.m.:562,,77,0,0.715344,0.3482492,0,0,-0.333291530609131,-0.00047677694237791,0.5,0.5,0.5,-0.245536431670189,,
19/07/2022 6:47:21 p.m.:585,,77,0,0.715344,0.3482492,0,0,-0.333291530609131,-0.00047677694237791,0.5,0.5,0.5,-0.245536431670189,,
19/07/2022 6:47:21 p.m.:616,,77,0,0.715344,0.3482492,0,0,-0.333291530609131,-0.00047677694237791,0.5,0.5,0.5,-0.245536431670189,,
19/07/2022 6:47:21 p.m.:637,,77,0,0.716534,0.3470715,0,0,-0.333291530609131,-0.00047677694237791,0.5,0.5,0.5,-0.245536431670189,,
19/07/2022 6:47:21 p.m.:657,,77,0,0.716534,0.3470715,0,0,-0.333291530609131,-0.00047677694237791,0.5,0.5,0.5,-0.245536431670189,,
19/07/2022 6:47:21 p.m.:690,,77,0,0.716534,0.3470715,0,0,-0.333291530609131,-0.00047677694237791,0.5,0.5,0.5,-0.245536431670189,,
19/07/2022 6:47:21 p.m.:724,,77,0,0.716534,0.3470715,0,0,-0.333291530609131,-0.00047677694237791,0.5,0.5,0.5,-0.245536431670189,,
19/07/2022 6:47:21 p.m.:745,,77,0,0.7170214,0.3465891,0,0,-0.333291530609131,-0.00047677694237791,0.5,0.5,0.5,-0.245536431670189,,
19/07/2022 6:47:21 p.m.:774,,77,0,0.7170214,0.3465891,0,0,-0.333291530609131,-0.00047677694237791,0.5,0.5,0.5,-0.245536431670189,,
19/07/2022 6:47:21 p.m.:798,,77,0,0.7170214,0.3465891,0,0,-0.333291530609131,-0.00047677694237791,0.5,0.5,0.5,-0.245536431670189,,
19/07/2022 6:47:21 p.m.:838,,77,0,0.7170214,0.3465891,0,0,-0.333291530609131,-0.00047677694237791,0.5,0.5,0.5,-0.245536431670189,,
19/07/2022 6:47:21 p.m.:876,,77,0,0.7172211,0.3463915,0,0,-0.333291530609131,-0.00047677694237791,0.5,0.5,0.5,-0.245536431670189,,
19/07/2022 6:47:21 p.m.:925,,77,0,0.7172211,0.3463915,0,0,-0.333291530609131,-0.00047677694237791,0.5,0.5,0.5,-0.245536431670189,,
19/07/2022 6:47:21 p.m.:953,,77,0,0.7172211,0.3463915,0,0,-0.333291530609131,-0.00047677694237791,0.5,0.5,0.5,-0.245536431670189,,
19/07/2022 6:47:21 p.m.:975,,77,0,0.7172887,0.3463246,0,0,-0.333291530609131,-0.00047677694237791,0.5,0.5,0.5,-0.245536431670189,,
19/07/2022 6:47:21 p.m.:997,,77,0,0.7172887,0.3463246,0,0,-0.333291530609131,-0.00047677694237791,0.5,0.5,0.5,-0.245536431670189,,
19/07/2022 6:47:22 p.m.:20,,77,0,0.7172887,0.3463246,0,0,-0.333291530609131,-0.00047677694237791,0.5,0.5,0.5,-0.245536431670189,,
19/07/2022 6:47:22 p.m.:43,,77,0,0.7172887,0.3463246,0,0,-0.333291530609131,-0.00047677694237791,0.5,0.5,0.5,-0.245536431670189,,
19/07/2022 6:47:22 p.m.:90,,77,0,0.7173305,0.3462832,0,0,-0.333291530609131,-0.00047677694237791,0.5,0.5,0.5,-0.245536431670189,,
19/07/2022 6:47:22 p.m.:110,,77,0,0.7173305,0.3462832,0,0,-0.333291530609131,-0.00047677694237791,0.5,0.5,0.5,-0.245536431670189,,
19/07/2022 6:47:22 p.m.:131,,77,0,0.7173305,0.3462832,0,0,-0.333291530609131,-0.00047677694237791,0.5,0.5,0.5,-0.245536431670189,,
19/07/2022 6:47:22 p.m.:155,,77,0,0.7173305,0.3462832,0,0,-0.333291530609131,-0.00047677694237791,0.5,0.5,0.5,-0.245536431670189,,
19/07/2022 6:47:22 p.m.:185,,77,0,0.7173477,0.3462662,0,0,-0.333291530609131,-0.00047677694237791,0.5,0.5,0.5,-0.245536431670189,,
19/07/2022 6:47:22 p.m.:207,,77,0,0.7173477,0.3462662,0,0,-0.333291530609131,-0.00047677694237791,0.5,0.5,0.5,-0.245536431670189,,
19/07/2022 6:47:22 p.m.:242,,77,0,0.7173477,0.3462662,0,0,-0.333291530609131,-0.00047677694237791,0.5,0.5,0.5,-0.245536431670189,,
19/07/2022 6:47:22 p.m.:265,,77,0,0.7173477,0.3462662,0,0,-0.333291530609131,-0.00047677694237791,0.5,0.5,0.5,-0.245536431670189,,
19/07/2022 6:47:22 p.m.:288,,77,0,0.7173547,0.3462592,0,0,-0.333291530609131,-0.00047677694237791,0.5,0.5,0.5,-0.245536431670189,,
19/07/2022 6:47:22 p.m.:313,,77,0,0.7173547,0.3462592,0,0,-0.333291530609131,-0.00047677694237791,0.5,0.5,0.5,-0.245536431670189,,
19/07/2022 6:47:22 p.m.:333,,77,0,0.7173547,0.3462592,0,0,-0.333291530609131,-0.00047677694237791,0.5,0.5,0.5,-0.245536431670189,,
19/07/2022 6:47:22 p.m.:354,,77,0,0.7173547,0.3462592,0,0,-0.333291530609131,-0.00047677694237791,0.5,0.5,0.5,-0.245536431670189,,
19/07/2022 6:47:22 p.m.:377,,77,0,0.7173547,0.3462592,0,0,-0.333291530609131,-0.00047677694237791,0.5,0.5,0.5,-0.245536431670189,,
19/07/2022 6:47:22 p.m.:412,,77,0,0.717358,0.346256,0,0,-0.333291530609131,-0.00047677694237791,0.5,0.5,0.5,-0.245536431670189,,
19/07/2022 6:47:22 p.m.:444,,77,0,0.717358,0.346256,0,0,-0.333291530609131,-0.00047677694237791,0.5,0.5,0.5,-0.245536431670189,,
19/07/2022 6:47:22 p.m.:466,,77,0,0.717358,0.346256,0,0,-0.333291530609131,-0.00047677694237791,0.5,0.5,0.5,-0.245536431670189,,
19/07/2022 6:47:22 p.m.:490,,77,0,0.717358,0.346256,0,0,-0.333291530609131,-0.00047677694237791,0.5,0.5,0.5,-0.245536431670189,,
19/07/2022 6:47:22 p.m.:509,,77,0,0.7173589,0.3462551,0,0,-0.333291530609131,-0.00047677694237791,0.5,0.5,0.5,-0.245536431670189,,
19/07/2022 6:47:22 p.m.:531,,77,0,0.7173589,0.3462551,0,0,-0.333291530609131,-0.00047677694237791,0.5,0.5,0.5,-0.245536431670189,,
19/07/2022 6:47:22 p.m.:577,,77,0,0.7173589,0.3462551,0,0,-0.333291530609131,-0.00047677694237791,0.5,0.5,0.5,-0.245536431670189,,
19/07/2022 6:47:22 p.m.:601,,77,0,0.7173589,0.3462551,0,0,-0.333291530609131,-0.00047677694237791,0.5,0.5,0.5,-0.245536431670189,,
19/07/2022 6:47:22 p.m.:633,,77,0,0.7173593,0.3462547,0,0,-0.333291530609131,-0.00047677694237791,0.5,0.5,0.5,-0.245536431670189,,
19/07/2022 6:47:22 p.m.:668,,77,0,0.7173593,0.3462547,0,0,-0.333291530609131,-0.00047677694237791,0.5,0.5,0.5,-0.245536431670189,,
19/07/2022 6:47:22 p.m.:703,,77,0,0.7173593,0.3462547,0,0,-0.333291530609131,-0.00047677694237791,0.5,0.5,0.5,-0.245536431670189,,
19/07/2022 6:47:22 p.m.:739,,77,0,0.7173595,0.3462546,0,0,-0.333291530609131,-0.00047677694237791,0.5,0.5,0.5,-0.245536431670189,,
19/07/2022 6:47:22 p.m.:760,,77,0,0.7173595,0.3462546,0,0,-0.333291530609131,-0.00047677694237791,0.5,0.5,0.5,-0.245536431670189,,
19/07/2022 6:47:22 p.m.:780,,77,0,0.7173595,0.3462546,0,0,-0.333291530609131,-0.00047677694237791,0.5,0.5,0.5,-0.245536431670189,,
19/07/2022 6:47:22 p.m.:806,,77,0,0.7173595,0.3462546,0,0,-0.333291530609131,-0.00047677694237791,0.5,0.5,0.5,-0.245536431670189,,
19/07/2022 6:47:22 p.m.:834,,77,0,0.7173595,0.3462545,0,0,-0.333291530609131,-0.00047677694237791,0.5,0.5,0.5,-0.245536431670189,,
19/07/2022 6:47:22 p.m.:855,,77,0,0.7173595,0.3462545,0,0,-0.333291530609131,-0.00047677694237791,0.5,0.5,0.5,-0.245536431670189,,
19/07/2022 6:47:22 p.m.:894,,77,0,0.7173595,0.3462545,0,0,-0.333291530609131,-0.00047677694237791,0.5,0.5,0.5,-0.245536431670189,,
19/07/2022 6:47:22 p.m.:917,,77,0,0.7173595,0.3462545,0,0,-0.333291530609131,-0.00047677694237791,0.5,0.5,0.5,-0.245536431670189,,
19/07/2022 6:47:22 p.m.:938,,77,0,0.7173595,0.3462545,0,0,-0.333291530609131,-0.00047677694237791,0.5,0.5,0.5,-0.245536431670189,,
19/07/2022 6:47:22 p.m.:980,,77,0,0.7173595,0.3462545,0,0,-0.333291530609131,-0.00047677694237791,0.5,0.5,0.5,-0.245536431670189,,
19/07/2022 6:47:23 p.m.:17,,77,0,0.7173595,0.3462545,0,0,-0.333291530609131,-0.00047677694237791,0.5,0.5,0.5,-0.245536431670189,,
19/07/2022 6:47:23 p.m.:42,,77,0,0.7173595,0.3462545,0,0,-0.333291530609131,-0.00047677694237791,0.5,0.5,0.5,-0.245536431670189,,
19/07/2022 6:47:23 p.m.:64,,77,0,0.7173595,0.3462545,0,0,-0.333291530609131,-0.00047677694237791,0.5,0.5,0.5,-0.245536431670189,,
19/07/2022 6:47:23 p.m.:88,,77,0,0.7173595,0.3462545,0,0,-0.333291530609131,-0.00047677694237791,0.5,0.5,0.5,-0.245536431670189,,
19/07/2022 6:47:23 p.m.:113,,77,0,0.7173595,0.3462545,0,0,-0.333291530609131,-0.00047677694237791,0.5,0.5,0.5,-0.245536431670189,,
19/07/2022 6:47:23 p.m.:133,,77,0,0.7173595,0.3462545,0,0,-0.333291530609131,-0.00047677694237791,0.5,0.5,0.5,-0.245536431670189,,
19/07/2022 6:47:23 p.m.:156,,77,0,0.7173595,0.3462545,0,0,-0.333291530609131,-0.00047677694237791,0.5,0.5,0.5,-0.245536431670189,,
19/07/2022 6:47:23 p.m.:176,,77,0,0.7173595,0.3462545,0,0,-0.333291530609131,-0.00047677694237791,0.5,0.5,0.5,-0.245536431670189,,
19/07/2022 6:47:23 p.m.:197,,77,0,0.7173595,0.3462545,0,0,-0.333291530609131,-0.00047677694237791,0.5,0.5,0.5,-0.245536431670189,,
19/07/2022 6:47:23 p.m.:220,,77,0,0.7173595,0.3462545,0,0,-0.333291530609131,-0.00047677694237791,0.5,0.5,0.5,-0.245536431670189,,
19/07/2022 6:47:23 p.m.:249,,77,0,0.7173595,0.3462545,0,0,-0.333291530609131,-0.00047677694237791,0.5,0.5,0.5,-0.245536431670189,,
19/07/2022 6:47:23 p.m.:272,,77,0,0.7173595,0.3462545,0,0,-0.333291530609131,-0.00047677694237791,0.5,0.5,0.5,-0.245536431670189,,
